time;V(V_tia);
(s);(V)

0;1.0248;
2e-11;1.0248;
4e-11;1.0248;
8e-11;1.0248;
1.6e-10;1.0248;
3.2e-10;1.0248;
6.4e-10;1.0248;
1.28e-09;1.0248;
2e-09;1.0248;
2.128e-09;1.0248;
2.384e-09;1.0248;
2.896e-09;1.0248;
3.92e-09;1.0248;
4e-09;1.0248;
4.16e-09;1.0248;
4.48e-09;1.0248;
5.12e-09;1.0248;
6.4e-09;1.0248;
8.96e-09;1.0248;
1.408e-08;1.0248;
2.432e-08;1.0248;
4.48e-08;1.0248;
8.576e-08;1.0248;
1.6768e-07;1.02481;
3.3152e-07;1.02485;
6.14444e-07;1.02497;
8.84184e-07;1.02514;
1.14553e-06;1.02535;
1.42412e-06;1.0256;
1.7062e-06;1.02588;
2.02776e-06;1.02622;
2.38113e-06;1.02659;
2.71354e-06;1.02695;
2.82077e-06;1.02706;
2.85849e-06;1.0271;
2.86378e-06;1.02711;
2.867e-06;1.02711;
2.87047e-06;1.02711;
2.87452e-06;1.02712;
2.87877e-06;1.02712;
2.88306e-06;1.02713;
2.88743e-06;1.02713;
2.89178e-06;1.02714;
2.89643e-06;1.02714;
2.90137e-06;1.02715;
2.90696e-06;1.02715;
2.91304e-06;1.02716;
2.9204e-06;1.02717;
2.92878e-06;1.02718;
2.93992e-06;1.02719;
2.95346e-06;1.0272;
2.97448e-06;1.02722;
3.00341e-06;1.02725;
3.06126e-06;1.02731;
3.14562e-06;1.0274;
3.29321e-06;1.02755;
3.54187e-06;1.0278;
4.0392e-06;1.02828;
4.83958e-06;1.02898;
5.6824e-06;1.02962;
6.15826e-06;1.02993;
6.84377e-06;1.03034;
7.31067e-06;1.03058;
7.83958e-06;1.03083;
8.83958e-06;1.03123;
9.83958e-06;1.03155;
1.08396e-05;1.03181;
1.18396e-05;1.03202;
1.28396e-05;1.03219;
1.38396e-05;1.03233;
1.48396e-05;1.03245;
1.58396e-05;1.03254;
1.68396e-05;1.03262;
1.78396e-05;1.03268;
1.88396e-05;1.03274;
1.98396e-05;1.03278;
2.08396e-05;1.03282;
2.18396e-05;1.03285;
2.28396e-05;1.03288;
2.38396e-05;1.0329;
2.48396e-05;1.03291;
2.58396e-05;1.03293;
2.68396e-05;1.03294;
2.78396e-05;1.03295;
2.88396e-05;1.03296;
2.98396e-05;1.03297;
3.08396e-05;1.03297;
3.18396e-05;1.03298;
3.28396e-05;1.03298;
3.38396e-05;1.03299;
3.48396e-05;1.03299;
3.58396e-05;1.03299;
3.68396e-05;1.03299;
3.78396e-05;1.03299;
3.88396e-05;1.033;
3.98396e-05;1.033;
4.0004e-05;1.033;
4.00042e-05;1.033;
4.00046e-05;1.033;
4.00054e-05;1.033;
4.0006e-05;1.033;
4.00062e-05;1.033;
4.00065e-05;1.033;
4.00071e-05;1.033;
4.00084e-05;1.033;
4.0011e-05;1.033;
4.00161e-05;1.033;
4.00263e-05;1.033;
4.00468e-05;1.033;
4.00878e-05;1.033;
4.01697e-05;1.03299;
4.03335e-05;1.03295;
4.06612e-05;1.03281;
4.13084e-05;1.03232;
4.19623e-05;1.03167;
4.27484e-05;1.03083;
4.33325e-05;1.03022;
4.40087e-05;1.02955;
4.46665e-05;1.02897;
4.56492e-05;1.02821;
4.66492e-05;1.02757;
4.76492e-05;1.02706;
4.80348e-05;1.02689;
4.82796e-05;1.02679;
4.842e-05;1.02673;
4.85021e-05;1.0267;
4.85503e-05;1.02668;
4.85786e-05;1.02667;
4.86004e-05;1.02666;
4.86226e-05;1.02665;
4.86442e-05;1.02665;
4.86678e-05;1.02664;
4.8675e-05;1.02664;
4.86794e-05;1.02663;
4.86842e-05;1.02663;
4.86895e-05;1.02663;
4.87002e-05;1.02663;
4.87183e-05;1.02662;
4.8742e-05;1.02661;
4.87749e-05;1.0266;
4.88173e-05;1.02658;
4.88755e-05;1.02656;
4.89535e-05;1.02654;
4.90657e-05;1.0265;
4.92341e-05;1.02644;
4.94361e-05;1.02638;
4.96424e-05;1.02631;
4.97568e-05;1.02628;
4.99025e-05;1.02624;
5.00151e-05;1.02621;
5.01483e-05;1.02617;
5.04147e-05;1.0261;
5.07898e-05;1.02601;
5.14834e-05;1.02586;
5.24834e-05;1.02567;
5.32242e-05;1.02556;
5.39927e-05;1.02545;
5.46106e-05;1.02538;
5.52854e-05;1.02531;
5.62686e-05;1.02523;
5.72686e-05;1.02516;
5.82686e-05;1.0251;
5.92686e-05;1.02505;
6.02686e-05;1.02501;
6.12686e-05;1.02497;
6.22686e-05;1.02494;
6.32686e-05;1.02492;
6.42686e-05;1.0249;
6.52686e-05;1.02488;
6.62686e-05;1.02487;
6.72686e-05;1.02486;
6.82686e-05;1.02485;
6.92686e-05;1.02484;
7.02686e-05;1.02484;
7.12686e-05;1.02483;
7.22686e-05;1.02483;
7.32686e-05;1.02482;
7.42686e-05;1.02482;
7.52686e-05;1.02482;
7.62686e-05;1.02481;
7.72686e-05;1.02481;
7.82686e-05;1.02481;
7.92686e-05;1.02481;
8.0002e-05;1.02481;
8.00022e-05;1.02481;
8.00026e-05;1.02481;
8.00034e-05;1.02481;
8.0004e-05;1.02481;
8.00042e-05;1.02481;
8.00045e-05;1.02481;
8.00051e-05;1.02481;
8.00064e-05;1.02481;
8.0009e-05;1.02481;
8.00141e-05;1.02481;
8.00243e-05;1.02481;
8.00448e-05;1.02481;
8.00858e-05;1.02481;
8.01677e-05;1.02482;
8.03315e-05;1.02485;
8.06592e-05;1.025;
8.13146e-05;1.0255;
8.20017e-05;1.02618;
8.27182e-05;1.02695;
8.32838e-05;1.02754;
8.38754e-05;1.02813;
8.4491e-05;1.02869;
8.53743e-05;1.0294;
8.63743e-05;1.03007;
8.73743e-05;1.03062;
8.83743e-05;1.03106;
8.93743e-05;1.03141;
8.97538e-05;1.03153;
9.0012e-05;1.0316;
9.02747e-05;1.03167;
9.04732e-05;1.03172;
9.06873e-05;1.03178;
9.073e-05;1.03179;
9.07333e-05;1.03179;
9.07343e-05;1.03179;
9.0735e-05;1.03179;
9.07354e-05;1.03179;
9.07359e-05;1.03179;
9.07363e-05;1.03179;
9.07368e-05;1.03179;
9.07376e-05;1.03179;
9.0739e-05;1.03179;
9.074e-05;1.03179;
9.07405e-05;1.03179;
9.0741e-05;1.03179;
9.07415e-05;1.03179;
9.0742e-05;1.03179;
9.07431e-05;1.03179;
9.07441e-05;1.03179;
9.0745e-05;1.03179;
9.07462e-05;1.03179;
9.07474e-05;1.03179;
9.07485e-05;1.03179;
9.07498e-05;1.03179;
9.07508e-05;1.03179;
9.07519e-05;1.03179;
9.07541e-05;1.03179;
9.07584e-05;1.03179;
9.07656e-05;1.03179;
9.07728e-05;1.0318;
9.07823e-05;1.0318;
9.07931e-05;1.0318;
9.08093e-05;1.0318;
9.08308e-05;1.03181;
9.0869e-05;1.03182;
9.09391e-05;1.03183;
9.10791e-05;1.03187;
9.13592e-05;1.03193;
9.18235e-05;1.03202;
9.23116e-05;1.03211;
9.30445e-05;1.03222;
9.34629e-05;1.03228;
9.39526e-05;1.03235;
9.43529e-05;1.03239;
9.4806e-05;1.03244;
9.54332e-05;1.03251;
9.62072e-05;1.03257;
9.72072e-05;1.03265;
9.82072e-05;1.03271;
9.92072e-05;1.03276;
0.000100207;1.0328;
0.000101207;1.03283;
0.000102207;1.03286;
0.000103207;1.03288;
0.000104207;1.0329;
0.000105207;1.03292;
0.000106207;1.03293;
0.000107207;1.03295;
0.000108207;1.03295;
0.000109207;1.03296;
0.000110207;1.03297;
0.000111207;1.03297;
0.000112207;1.03298;
0.000113207;1.03298;
0.000114207;1.03299;
0.000115207;1.03299;
0.000116207;1.03299;
0.000117207;1.03299;
0.000118207;1.03299;
0.000119207;1.033;
0.000120004;1.033;
0.000120004;1.033;
0.000120005;1.033;
0.000120005;1.033;
0.000120006;1.033;
0.000120006;1.033;
0.000120006;1.033;
0.000120007;1.033;
0.000120008;1.033;
0.000120011;1.033;
0.000120016;1.033;
0.000120026;1.033;
0.000120047;1.033;
0.000120088;1.033;
0.00012017;1.03299;
0.000120334;1.03295;
0.000120661;1.03281;
0.000121308;1.03232;
0.000121962;1.03167;
0.000122748;1.03083;
0.000123332;1.03022;
0.000124009;1.02955;
0.000124666;1.02897;
0.000125649;1.02821;
0.000126649;1.02757;
0.000127649;1.02706;
0.000128035;1.02689;
0.00012828;1.02679;
0.00012842;1.02673;
0.000128502;1.0267;
0.00012855;1.02668;
0.000128579;1.02667;
0.000128601;1.02666;
0.000128623;1.02665;
0.000128645;1.02665;
0.000128669;1.02664;
0.000128675;1.02664;
0.00012868;1.02663;
0.000128684;1.02663;
0.00012869;1.02663;
0.000128701;1.02663;
0.00012872;1.02662;
0.000128744;1.02661;
0.000128778;1.0266;
0.000128821;1.02658;
0.000128881;1.02656;
0.000128961;1.02653;
0.000129076;1.02649;
0.000129252;1.02644;
0.000129466;1.02637;
0.000129684;1.0263;
0.000129796;1.02627;
0.000129906;1.02624;
0.000130022;1.0262;
0.000130146;1.02617;
0.000130296;1.02613;
0.00013048;1.02608;
0.000130725;1.02602;
0.000131062;1.02595;
0.00013154;1.02584;
0.000132237;1.02571;
0.000133083;1.02558;
0.000133666;1.0255;
0.00013429;1.02542;
0.000134969;1.02535;
0.000135634;1.02528;
0.000136549;1.02521;
0.000137549;1.02514;
0.000138549;1.02508;
0.000139549;1.02504;
0.000140549;1.025;
0.000141549;1.02496;
0.000142549;1.02494;
0.000143549;1.02492;
0.000144549;1.0249;
0.000145549;1.02488;
0.000146549;1.02487;
0.000147549;1.02486;
0.000148549;1.02485;
0.000149549;1.02484;
0.000150549;1.02483;
0.000151549;1.02483;
0.000152549;1.02482;
0.000153549;1.02482;
0.000154549;1.02482;
0.000155549;1.02482;
0.000156549;1.02481;
0.000157549;1.02481;
0.000158549;1.02481;
0.000159549;1.02481;
0.000160002;1.02481;
0.000160002;1.02481;
0.000160003;1.02481;
0.000160003;1.02481;
0.000160004;1.02481;
0.000160004;1.02481;
0.000160004;1.02481;
0.000160005;1.02481;
0.000160006;1.02481;
0.000160009;1.02481;
0.000160014;1.02481;
0.000160024;1.02481;
0.000160045;1.02481;
0.000160086;1.02481;
0.000160168;1.02482;
0.000160332;1.02485;
0.000160659;1.025;
0.000161315;1.0255;
0.000162002;1.02618;
0.000162719;1.02695;
0.000163284;1.02754;
0.000163876;1.02813;
0.000164492;1.02869;
0.000165375;1.0294;
0.000166375;1.03007;
0.000167375;1.03062;
0.000168375;1.03106;
0.000169375;1.03141;
0.000169755;1.03153;
0.000170013;1.0316;
0.000170276;1.03167;
0.000170474;1.03172;
0.000170688;1.03178;
0.000170731;1.03179;
0.000170735;1.03179;
0.000170737;1.03179;
0.000170738;1.03179;
0.000170738;1.03179;
0.000170739;1.03179;
0.000170739;1.03179;
0.00017074;1.03179;
0.00017074;1.03179;
0.000170741;1.03179;
0.000170743;1.03179;
0.000170746;1.03179;
0.000170749;1.03179;
0.00017075;1.03179;
0.00017075;1.03179;
0.000170751;1.03179;
0.000170751;1.03179;
0.000170752;1.03179;
0.000170753;1.03179;
0.000170754;1.03179;
0.000170755;1.03179;
0.000170756;1.03179;
0.000170757;1.03179;
0.000170758;1.03179;
0.000170759;1.03179;
0.00017076;1.03179;
0.000170761;1.03179;
0.000170763;1.03179;
0.000170767;1.03179;
0.000170774;1.0318;
0.000170781;1.0318;
0.000170791;1.0318;
0.000170801;1.0318;
0.000170817;1.03181;
0.000170838;1.03181;
0.000170875;1.03182;
0.000170938;1.03183;
0.000171065;1.03186;
0.000171318;1.03192;
0.000171825;1.03202;
0.000172286;1.0321;
0.000173208;1.03225;
0.000173768;1.03232;
0.000174358;1.0324;
0.000174999;1.03246;
0.000175588;1.03252;
0.000176404;1.03259;
0.000177348;1.03265;
0.000178348;1.03271;
0.000179348;1.03276;
0.000180348;1.0328;
0.000181348;1.03284;
0.000182348;1.03286;
0.000183348;1.03289;
0.000184348;1.03291;
0.000185348;1.03292;
0.000186348;1.03294;
0.000187348;1.03295;
0.000188348;1.03296;
0.000189348;1.03296;
0.000190348;1.03297;
0.000191348;1.03298;
0.000192348;1.03298;
0.000193348;1.03298;
0.000194348;1.03299;
0.000195348;1.03299;
0.000196348;1.03299;
0.000197348;1.03299;
0.000198348;1.033;
0.000199348;1.033;
0.000200004;1.033;
0.000200004;1.033;
0.000200005;1.033;
0.000200005;1.033;
0.000200006;1.033;
0.000200006;1.033;
0.000200006;1.033;
0.000200007;1.033;
0.000200008;1.033;
0.000200011;1.033;
0.000200016;1.033;
0.000200026;1.033;
0.000200047;1.033;
0.000200088;1.033;
0.00020017;1.03299;
0.000200334;1.03295;
0.000200661;1.03281;
0.000201308;1.03232;
0.000201962;1.03167;
0.000202748;1.03083;
0.000203332;1.03022;
0.000204009;1.02955;
0.000204666;1.02897;
0.000205649;1.02821;
0.000206649;1.02757;
0.000207649;1.02706;
0.000208035;1.02689;
0.00020828;1.02679;
0.00020842;1.02673;
0.000208502;1.0267;
0.00020855;1.02668;
0.000208579;1.02667;
0.000208601;1.02666;
0.000208623;1.02665;
0.000208645;1.02665;
0.000208669;1.02664;
0.000208676;1.02664;
0.00020868;1.02663;
0.000208685;1.02663;
0.000208691;1.02663;
0.000208702;1.02663;
0.000208721;1.02662;
0.000208746;1.02661;
0.00020878;1.0266;
0.000208825;1.02658;
0.000208885;1.02656;
0.000208967;1.02653;
0.000209085;1.02649;
0.000209267;1.02643;
0.000209492;1.02636;
0.000209721;1.02629;
0.000209863;1.02625;
0.000209987;1.02621;
0.00021012;1.02618;
0.000210289;1.02613;
0.000210475;1.02608;
0.000210729;1.02602;
0.000211058;1.02595;
0.000211509;1.02585;
0.000212153;1.02573;
0.00021306;1.02558;
0.000213631;1.0255;
0.000214253;1.02542;
0.000214883;1.02535;
0.000215528;1.02529;
0.000216385;1.02522;
0.000217385;1.02515;
0.000218385;1.02509;
0.000219385;1.02504;
0.000220385;1.025;
0.000221385;1.02497;
0.000222385;1.02494;
0.000223385;1.02492;
0.000224385;1.0249;
0.000225385;1.02488;
0.000226385;1.02487;
0.000227385;1.02486;
0.000228385;1.02485;
0.000229385;1.02484;
0.000230385;1.02484;
0.000231385;1.02483;
0.000232385;1.02483;
0.000233385;1.02482;
0.000234385;1.02482;
0.000235385;1.02482;
0.000236385;1.02481;
0.000237385;1.02481;
0.000238385;1.02481;
0.000239385;1.02481;
0.000240002;1.02481;
0.000240002;1.02481;
0.000240003;1.02481;
0.000240003;1.02481;
0.000240004;1.02481;
0.000240004;1.02481;
0.000240004;1.02481;
0.000240005;1.02481;
0.000240006;1.02481;
0.000240009;1.02481;
0.000240014;1.02481;
0.000240024;1.02481;
0.000240045;1.02481;
0.000240086;1.02481;
0.000240168;1.02482;
0.000240332;1.02485;
0.000240659;1.025;
0.000241315;1.0255;
0.000242002;1.02618;
0.000242718;1.02695;
0.000243284;1.02754;
0.000243875;1.02813;
0.000244491;1.02869;
0.000245374;1.0294;
0.000246374;1.03007;
0.000247374;1.03062;
0.000248374;1.03106;
0.000249374;1.03141;
0.000249753;1.03153;
0.000250011;1.0316;
0.000250274;1.03167;
0.000250472;1.03172;
0.000250686;1.03178;
0.000250729;1.03179;
0.000250735;1.03179;
0.000250736;1.03179;
0.000250738;1.03179;
0.000250738;1.03179;
0.000250739;1.03179;
0.000250739;1.03179;
0.00025074;1.03179;
0.000250741;1.03179;
0.000250742;1.03179;
0.000250743;1.03179;
0.000250745;1.03179;
0.00025075;1.03179;
0.000250756;1.03179;
0.000250761;1.03179;
0.000250768;1.03179;
0.000250775;1.0318;
0.000250784;1.0318;
0.000250795;1.0318;
0.00025081;1.0318;
0.00025083;1.03181;
0.000250865;1.03182;
0.000250926;1.03183;
0.000251049;1.03186;
0.000251294;1.03191;
0.000251735;1.032;
0.000252189;1.03209;
0.000253096;1.03223;
0.000253569;1.0323;
0.000254107;1.03237;
0.000254565;1.03242;
0.000255064;1.03247;
0.000255707;1.03253;
0.000256486;1.03259;
0.000257486;1.03266;
0.000258486;1.03272;
0.000259486;1.03277;
0.000260486;1.03281;
0.000261486;1.03284;
0.000262486;1.03287;
0.000263486;1.03289;
0.000264486;1.03291;
0.000265486;1.03292;
0.000266486;1.03294;
0.000267486;1.03295;
0.000268486;1.03296;
0.000269486;1.03296;
0.000270486;1.03297;
0.000271486;1.03298;
0.000272486;1.03298;
0.000273486;1.03298;
0.000274486;1.03299;
0.000275486;1.03299;
0.000276486;1.03299;
0.000277486;1.03299;
0.000278486;1.033;
0.000279486;1.033;
0.000280004;1.033;
0.000280004;1.033;
0.000280005;1.033;
0.000280005;1.033;
0.000280006;1.033;
0.000280006;1.033;
0.000280006;1.033;
0.000280007;1.033;
0.000280008;1.033;
0.000280011;1.033;
0.000280016;1.033;
0.000280026;1.033;
0.000280047;1.033;
0.000280088;1.033;
0.00028017;1.03299;
0.000280334;1.03295;
0.000280661;1.03281;
0.000281308;1.03232;
0.000281962;1.03167;
0.000282748;1.03083;
0.000283333;1.03022;
0.000284009;1.02955;
0.000284667;1.02897;
0.000285649;1.02821;
0.000286649;1.02757;
0.000287649;1.02706;
0.000288035;1.02689;
0.00028828;1.02679;
0.00028842;1.02673;
0.000288502;1.0267;
0.00028855;1.02668;
0.000288579;1.02667;
0.000288601;1.02666;
0.000288623;1.02665;
0.000288645;1.02665;
0.000288668;1.02664;
0.000288676;1.02664;
0.00028868;1.02663;
0.000288685;1.02663;
0.000288691;1.02663;
0.000288703;1.02663;
0.000288721;1.02662;
0.000288746;1.02661;
0.00028878;1.0266;
0.000288825;1.02658;
0.000288886;1.02656;
0.000288968;1.02653;
0.000289087;1.02649;
0.000289268;1.02643;
0.000289494;1.02636;
0.000289723;1.02629;
0.000289867;1.02625;
0.000289992;1.02621;
0.000290126;1.02618;
0.000290298;1.02613;
0.000290486;1.02608;
0.000290745;1.02602;
0.00029108;1.02594;
0.00029154;1.02584;
0.000292196;1.02572;
0.000293119;1.02557;
0.000293743;1.02549;
0.000294401;1.02541;
0.000295101;1.02533;
0.000295823;1.02527;
0.000296773;1.02519;
0.000297773;1.02513;
0.000298773;1.02507;
0.000299773;1.02503;
0.000300773;1.02499;
0.000301773;1.02496;
0.000302773;1.02493;
0.000303773;1.02491;
0.000304773;1.02489;
0.000305773;1.02488;
0.000306773;1.02487;
0.000307773;1.02486;
0.000308773;1.02485;
0.000309773;1.02484;
0.000310773;1.02483;
0.000311773;1.02483;
0.000312773;1.02482;
0.000313773;1.02482;
0.000314773;1.02482;
0.000315773;1.02482;
0.000316773;1.02481;
0.000317773;1.02481;
0.000318773;1.02481;
0.000319773;1.02481;
0.000320002;1.02481;
0.000320002;1.02481;
0.000320003;1.02481;
0.000320003;1.02481;
0.000320004;1.02481;
0.000320004;1.02481;
0.000320004;1.02481;
0.000320005;1.02481;
0.000320006;1.02481;
0.000320009;1.02481;
0.000320014;1.02481;
0.000320024;1.02481;
0.000320045;1.02481;
0.000320086;1.02481;
0.000320168;1.02482;
0.000320332;1.02485;
0.000320659;1.025;
0.000321315;1.0255;
0.000322002;1.02618;
0.000322718;1.02695;
0.000323284;1.02754;
0.000323875;1.02813;
0.000324491;1.02869;
0.000325374;1.0294;
0.000326374;1.03007;
0.000327374;1.03062;
0.000328374;1.03106;
0.000329374;1.03141;
0.000329753;1.03153;
0.000330011;1.0316;
0.000330274;1.03167;
0.000330472;1.03172;
0.000330686;1.03178;
0.000330729;1.03179;
0.000330733;1.03179;
0.000330734;1.03179;
0.000330735;1.03179;
0.000330736;1.03179;
0.000330736;1.03179;
0.000330737;1.03179;
0.000330737;1.03179;
0.000330738;1.03179;
0.000330739;1.03179;
0.000330741;1.03179;
0.000330745;1.03179;
0.000330751;1.03179;
0.000330758;1.03179;
0.000330765;1.03179;
0.000330773;1.0318;
0.000330784;1.0318;
0.000330798;1.0318;
0.000330818;1.03181;
0.000330849;1.03181;
0.000330905;1.03183;
0.000331019;1.03185;
0.000331245;1.0319;
0.000331697;1.03199;
0.000332112;1.03207;
0.000332942;1.03221;
0.000333398;1.03227;
0.000333967;1.03235;
0.000334364;1.0324;
0.000334879;1.03245;
0.000335879;1.03255;
0.000336879;1.03262;
0.000337879;1.03269;
0.000338879;1.03274;
0.000339879;1.03278;
0.000340879;1.03282;
0.000341879;1.03285;
0.000342879;1.03288;
0.000343879;1.0329;
0.000344879;1.03291;
0.000345879;1.03293;
0.000346879;1.03294;
0.000347879;1.03295;
0.000348879;1.03296;
0.000349879;1.03297;
0.000350879;1.03297;
0.000351879;1.03298;
0.000352879;1.03298;
0.000353879;1.03299;
0.000354879;1.03299;
0.000355879;1.03299;
0.000356879;1.03299;
0.000357879;1.03299;
0.000358879;1.033;
0.000359879;1.033;
0.000360004;1.033;
0.000360004;1.033;
0.000360005;1.033;
0.000360005;1.033;
0.000360006;1.033;
0.000360006;1.033;
0.000360006;1.033;
0.000360007;1.033;
0.000360008;1.033;
0.000360011;1.033;
0.000360016;1.033;
0.000360026;1.033;
0.000360047;1.033;
0.000360088;1.033;
0.00036017;1.03299;
0.000360334;1.03295;
0.000360661;1.03281;
0.000361308;1.03232;
0.000361962;1.03167;
0.000362748;1.03083;
0.000363333;1.03022;
0.000364009;1.02955;
0.000364667;1.02897;
0.000365649;1.02821;
0.000366649;1.02757;
0.000367649;1.02706;
0.000368035;1.02689;
0.00036828;1.02679;
0.00036842;1.02673;
0.000368502;1.0267;
0.00036855;1.02668;
0.000368579;1.02667;
0.0003686;1.02666;
0.000368623;1.02665;
0.000368644;1.02665;
0.000368668;1.02664;
0.000368675;1.02664;
0.00036868;1.02663;
0.000368685;1.02663;
0.00036869;1.02663;
0.000368702;1.02663;
0.00036872;1.02662;
0.000368745;1.02661;
0.000368778;1.0266;
0.000368822;1.02658;
0.000368882;1.02656;
0.000368962;1.02653;
0.000369078;1.02649;
0.000369255;1.02643;
0.000369471;1.02637;
0.000369691;1.0263;
0.000369808;1.02626;
0.000369921;1.02623;
0.000370039;1.0262;
0.000370169;1.02616;
0.000370325;1.02612;
0.000370519;1.02607;
0.000370775;1.02601;
0.000371128;1.02593;
0.000371627;1.02583;
0.00037235;1.02569;
0.000373075;1.02558;
0.000373634;1.0255;
0.000374226;1.02543;
0.000374856;1.02536;
0.000375507;1.02529;
0.000376386;1.02522;
0.000377386;1.02515;
0.000378386;1.02509;
0.000379386;1.02504;
0.000380386;1.025;
0.000381386;1.02497;
0.000382386;1.02494;
0.000383386;1.02492;
0.000384386;1.0249;
0.000385386;1.02488;
0.000386386;1.02487;
0.000387386;1.02486;
0.000388386;1.02485;
0.000389386;1.02484;
0.000390386;1.02484;
0.000391386;1.02483;
0.000392386;1.02483;
0.000393386;1.02482;
0.000394386;1.02482;
0.000395386;1.02482;
0.000396386;1.02481;
0.000397386;1.02481;
0.000398386;1.02481;
0.000399386;1.02481;
0.000400002;1.02481;
0.000400002;1.02481;
0.000400003;1.02481;
0.000400003;1.02481;
0.000400004;1.02481;
0.000400004;1.02481;
0.000400004;1.02481;
0.000400005;1.02481;
0.000400006;1.02481;
0.000400009;1.02481;
0.000400014;1.02481;
0.000400024;1.02481;
0.000400045;1.02481;
0.000400086;1.02481;
0.000400168;1.02482;
0.000400332;1.02485;
0.000400659;1.025;
0.000401315;1.0255;
0.000402002;1.02618;
0.000402719;1.02695;
0.000403284;1.02754;
0.000403876;1.02813;
0.000404492;1.02869;
0.000405375;1.0294;
0.000406375;1.03007;
0.000407375;1.03062;
0.000408375;1.03106;
0.000409375;1.03141;
0.000409755;1.03153;
0.000410013;1.0316;
0.000410276;1.03167;
0.000410474;1.03172;
0.000410689;1.03178;
0.000410731;1.03179;
0.000410736;1.03179;
0.000410738;1.03179;
0.000410739;1.03179;
0.000410739;1.03179;
0.00041074;1.03179;
0.00041074;1.03179;
0.00041074;1.03179;
0.000410741;1.03179;
0.000410742;1.03179;
0.000410744;1.03179;
0.000410747;1.03179;
0.00041075;1.03179;
0.000410751;1.03179;
0.000410752;1.03179;
0.000410753;1.03179;
0.000410753;1.03179;
0.000410753;1.03179;
0.000410753;1.03179;
0.000410754;1.03179;
0.000410754;1.03179;
0.000410755;1.03179;
0.000410756;1.03179;
0.000410756;1.03179;
0.000410757;1.03179;
0.000410758;1.03179;
0.000410759;1.03179;
0.00041076;1.03179;
0.000410762;1.03179;
0.000410763;1.03179;
0.000410764;1.03179;
0.000410765;1.03179;
0.000410767;1.03179;
0.000410772;1.0318;
0.000410779;1.0318;
0.000410787;1.0318;
0.000410796;1.0318;
0.000410808;1.0318;
0.000410825;1.03181;
0.000410848;1.03181;
0.000410889;1.03182;
0.000410971;1.03184;
0.000411134;1.03188;
0.00041146;1.03195;
0.000411962;1.03204;
0.0004125;1.03214;
0.000413058;1.03223;
0.000413446;1.03228;
0.000413889;1.03234;
0.000414277;1.03239;
0.000414702;1.03243;
0.000415317;1.03249;
0.000416096;1.03256;
0.000417096;1.03264;
0.000418096;1.0327;
0.000419096;1.03275;
0.000420096;1.03279;
0.000421096;1.03283;
0.000422096;1.03286;
0.000423096;1.03288;
0.000424096;1.0329;
0.000425096;1.03292;
0.000426096;1.03293;
0.000427096;1.03294;
0.000428096;1.03295;
0.000429096;1.03296;
0.000430096;1.03297;
0.000431096;1.03297;
0.000432096;1.03298;
0.000433096;1.03298;
0.000434096;1.03299;
0.000435096;1.03299;
0.000436096;1.03299;
0.000437096;1.03299;
0.000438096;1.03299;
0.000439096;1.033;
0.000440004;1.033;
0.000440004;1.033;
0.000440005;1.033;
0.000440005;1.033;
0.000440006;1.033;
0.000440006;1.033;
0.000440006;1.033;
0.000440007;1.033;
0.000440008;1.033;
0.000440011;1.033;
0.000440016;1.033;
0.000440026;1.033;
0.000440047;1.033;
0.000440088;1.033;
0.00044017;1.03299;
0.000440334;1.03295;
0.000440661;1.03281;
0.000441308;1.03232;
0.000441962;1.03167;
0.000442748;1.03083;
0.000443332;1.03022;
0.000444009;1.02955;
0.000444666;1.02897;
0.000445649;1.02821;
0.000446649;1.02757;
0.000447649;1.02706;
0.000448035;1.02689;
0.00044828;1.02679;
0.00044842;1.02673;
0.000448502;1.0267;
0.00044855;1.02668;
0.000448579;1.02667;
0.000448601;1.02666;
0.000448623;1.02665;
0.000448645;1.02665;
0.000448669;1.02664;
0.000448675;1.02664;
0.00044868;1.02663;
0.000448684;1.02663;
0.00044869;1.02663;
0.000448701;1.02663;
0.00044872;1.02662;
0.000448744;1.02661;
0.000448777;1.0266;
0.000448821;1.02658;
0.00044888;1.02656;
0.00044896;1.02653;
0.000449076;1.02649;
0.000449251;1.02644;
0.000449464;1.02637;
0.000449682;1.0263;
0.000449793;1.02627;
0.000449902;1.02624;
0.000450017;1.02621;
0.000450139;1.02617;
0.000450287;1.02613;
0.000450469;1.02609;
0.00045071;1.02603;
0.000451044;1.02595;
0.000451515;1.02585;
0.000452206;1.02572;
0.0004531;1.02557;
0.000453705;1.02549;
0.000454349;1.02541;
0.000455042;1.02534;
0.000455735;1.02527;
0.000456669;1.0252;
0.000457669;1.02513;
0.000458669;1.02508;
0.000459669;1.02503;
0.000460669;1.02499;
0.000461669;1.02496;
0.000462669;1.02493;
0.000463669;1.02491;
0.000464669;1.02489;
0.000465669;1.02488;
0.000466669;1.02487;
0.000467669;1.02486;
0.000468669;1.02485;
0.000469669;1.02484;
0.000470669;1.02483;
0.000471669;1.02483;
0.000472669;1.02482;
0.000473669;1.02482;
0.000474669;1.02482;
0.000475669;1.02482;
0.000476669;1.02481;
0.000477669;1.02481;
0.000478669;1.02481;
0.000479669;1.02481;
0.000480002;1.02481;
0.000480002;1.02481;
0.000480003;1.02481;
0.000480003;1.02481;
0.000480004;1.02481;
0.000480004;1.02481;
0.000480004;1.02481;
0.000480005;1.02481;
0.000480006;1.02481;
0.000480009;1.02481;
0.000480014;1.02481;
0.000480024;1.02481;
0.000480045;1.02481;
0.000480086;1.02481;
0.000480168;1.02482;
0.000480332;1.02485;
0.000480659;1.025;
0.000481315;1.0255;
0.000482002;1.02618;
0.000482719;1.02695;
0.000483284;1.02754;
0.000483876;1.02813;
0.000484492;1.02869;
0.000485375;1.0294;
0.000486375;1.03007;
0.000487375;1.03062;
0.000488375;1.03106;
0.000489375;1.03141;
0.000489755;1.03153;
0.000490013;1.0316;
0.000490275;1.03167;
0.000490474;1.03172;
0.000490688;1.03178;
0.000490731;1.03179;
0.000490735;1.03179;
0.000490737;1.03179;
0.000490738;1.03179;
0.000490738;1.03179;
0.000490739;1.03179;
0.000490739;1.03179;
0.00049074;1.03179;
0.00049074;1.03179;
0.000490741;1.03179;
0.000490743;1.03179;
0.000490746;1.03179;
0.000490749;1.03179;
0.00049075;1.03179;
0.00049075;1.03179;
0.000490751;1.03179;
0.000490751;1.03179;
0.000490752;1.03179;
0.000490753;1.03179;
0.000490754;1.03179;
0.000490755;1.03179;
0.000490756;1.03179;
0.000490757;1.03179;
0.000490758;1.03179;
0.000490759;1.03179;
0.00049076;1.03179;
0.00049076;1.03179;
0.000490762;1.03179;
0.000490765;1.03179;
0.000490772;1.0318;
0.000490778;1.0318;
0.000490787;1.0318;
0.000490797;1.0318;
0.000490811;1.0318;
0.000490829;1.03181;
0.000490859;1.03182;
0.000490908;1.03183;
0.000491006;1.03185;
0.000491202;1.03189;
0.000491594;1.03197;
0.000492182;1.03208;
0.000493045;1.03222;
0.000493501;1.03229;
0.000494036;1.03236;
0.000494464;1.03241;
0.000494945;1.03246;
0.00049558;1.03252;
0.000496344;1.03258;
0.000497344;1.03265;
0.000498344;1.03271;
0.000499344;1.03276;
0.000500344;1.0328;
0.000501344;1.03284;
0.000502344;1.03286;
0.000503344;1.03289;
0.000504344;1.03291;
0.000505344;1.03292;
0.000506344;1.03294;
0.000507344;1.03295;
0.000508344;1.03296;
0.000509344;1.03296;
0.000510344;1.03297;
0.000511344;1.03298;
0.000512344;1.03298;
0.000513344;1.03298;
0.000514344;1.03299;
0.000515344;1.03299;
0.000516344;1.03299;
0.000517344;1.03299;
0.000518344;1.033;
0.000519344;1.033;
0.000520004;1.033;
0.000520004;1.033;
0.000520005;1.033;
0.000520005;1.033;
0.000520006;1.033;
0.000520006;1.033;
0.000520006;1.033;
0.000520007;1.033;
0.000520008;1.033;
0.000520011;1.033;
0.000520016;1.033;
0.000520026;1.033;
0.000520047;1.033;
0.000520088;1.033;
0.00052017;1.03299;
0.000520334;1.03295;
0.000520661;1.03281;
0.000521308;1.03232;
0.000521962;1.03167;
0.000522748;1.03083;
0.000523332;1.03022;
0.000524009;1.02955;
0.000524666;1.02897;
0.000525649;1.02821;
0.000526649;1.02757;
0.000527649;1.02706;
0.000528035;1.02689;
0.00052828;1.02679;
0.00052842;1.02673;
0.000528502;1.0267;
0.00052855;1.02668;
0.000528579;1.02667;
0.000528601;1.02666;
0.000528623;1.02665;
0.000528645;1.02665;
0.000528669;1.02664;
0.000528676;1.02664;
0.00052868;1.02663;
0.000528685;1.02663;
0.000528691;1.02663;
0.000528702;1.02663;
0.000528721;1.02662;
0.000528746;1.02661;
0.00052878;1.0266;
0.000528824;1.02658;
0.000528885;1.02656;
0.000528967;1.02653;
0.000529085;1.02649;
0.000529266;1.02643;
0.00052949;1.02636;
0.000529718;1.02629;
0.000529858;1.02625;
0.000529981;1.02622;
0.000530113;1.02618;
0.000530277;1.02613;
0.00053046;1.02609;
0.000530708;1.02603;
0.00053103;1.02595;
0.00053147;1.02586;
0.000532098;1.02574;
0.000532984;1.02559;
0.000533504;1.02552;
0.000534094;1.02544;
0.000534636;1.02538;
0.000535215;1.02532;
0.000535978;1.02525;
0.000536893;1.02518;
0.000537893;1.02512;
0.000538893;1.02507;
0.000539893;1.02502;
0.000540893;1.02498;
0.000541893;1.02495;
0.000542893;1.02493;
0.000543893;1.02491;
0.000544893;1.02489;
0.000545893;1.02488;
0.000546893;1.02486;
0.000547893;1.02485;
0.000548893;1.02485;
0.000549893;1.02484;
0.000550893;1.02483;
0.000551893;1.02483;
0.000552893;1.02482;
0.000553893;1.02482;
0.000554893;1.02482;
0.000555893;1.02481;
0.000556893;1.02481;
0.000557893;1.02481;
0.000558893;1.02481;
0.000559893;1.02481;
0.000560002;1.02481;
0.000560002;1.02481;
0.000560003;1.02481;
0.000560003;1.02481;
0.000560004;1.02481;
0.000560004;1.02481;
0.000560004;1.02481;
0.000560005;1.02481;
0.000560006;1.02481;
0.000560009;1.02481;
0.000560014;1.02481;
0.000560024;1.02481;
0.000560045;1.02481;
0.000560086;1.02481;
0.000560168;1.02482;
0.000560332;1.02485;
0.000560659;1.025;
0.000561315;1.0255;
0.000562002;1.02618;
0.000562719;1.02695;
0.000563284;1.02754;
0.000563876;1.02813;
0.000564491;1.02869;
0.000565375;1.0294;
0.000566375;1.03007;
0.000567375;1.03062;
0.000568375;1.03106;
0.000569375;1.03141;
0.000569754;1.03153;
0.000570013;1.0316;
0.000570275;1.03167;
0.000570474;1.03172;
0.000570688;1.03178;
0.000570731;1.03179;
0.000570735;1.03179;
0.000570736;1.03179;
0.000570737;1.03179;
0.000570738;1.03179;
0.000570738;1.03179;
0.000570739;1.03179;
0.000570739;1.03179;
0.00057074;1.03179;
0.000570741;1.03179;
0.000570743;1.03179;
0.000570746;1.03179;
0.000570747;1.03179;
0.000570747;1.03179;
0.000570748;1.03179;
0.000570748;1.03179;
0.000570748;1.03179;
0.000570749;1.03179;
0.000570749;1.03179;
0.00057075;1.03179;
0.000570751;1.03179;
0.000570752;1.03179;
0.000570753;1.03179;
0.000570754;1.03179;
0.000570755;1.03179;
0.000570756;1.03179;
0.000570756;1.03179;
0.000570758;1.03179;
0.000570759;1.03179;
0.00057076;1.03179;
0.000570762;1.03179;
0.000570767;1.03179;
0.000570774;1.0318;
0.000570782;1.0318;
0.000570792;1.0318;
0.000570803;1.0318;
0.00057082;1.03181;
0.000570844;1.03181;
0.000570886;1.03182;
0.000570968;1.03184;
0.000571134;1.03188;
0.000571465;1.03195;
0.000572017;1.03205;
0.00057277;1.03218;
0.00057327;1.03226;
0.000573926;1.03234;
0.000574397;1.0324;
0.000574932;1.03246;
0.000575728;1.03253;
0.000576599;1.0326;
0.000577599;1.03267;
0.000578599;1.03273;
0.000579599;1.03277;
0.000580599;1.03281;
0.000581599;1.03284;
0.000582599;1.03287;
0.000583599;1.03289;
0.000584599;1.03291;
0.000585599;1.03293;
0.000586599;1.03294;
0.000587599;1.03295;
0.000588599;1.03296;
0.000589599;1.03297;
0.000590599;1.03297;
0.000591599;1.03298;
0.000592599;1.03298;
0.000593599;1.03298;
0.000594599;1.03299;
0.000595599;1.03299;
0.000596599;1.03299;
0.000597599;1.03299;
0.000598599;1.033;
0.000599599;1.033;
0.000600004;1.033;
0.000600004;1.033;
0.000600005;1.033;
0.000600005;1.033;
0.000600006;1.033;
0.000600006;1.033;
0.000600006;1.033;
0.000600007;1.033;
0.000600008;1.033;
0.000600011;1.033;
0.000600016;1.033;
0.000600026;1.033;
0.000600047;1.033;
0.000600088;1.033;
0.00060017;1.03299;
0.000600334;1.03295;
0.000600661;1.03281;
0.000601308;1.03232;
0.000601962;1.03167;
0.000602748;1.03083;
0.000603332;1.03022;
0.000604009;1.02955;
0.000604666;1.02897;
0.000605649;1.02821;
0.000606649;1.02757;
0.000607649;1.02706;
0.000608035;1.02689;
0.00060828;1.02679;
0.00060842;1.02673;
0.000608502;1.0267;
0.00060855;1.02668;
0.000608579;1.02667;
0.000608601;1.02666;
0.000608623;1.02665;
0.000608645;1.02665;
0.000608669;1.02664;
0.000608676;1.02664;
0.00060868;1.02663;
0.000608685;1.02663;
0.000608691;1.02663;
0.000608702;1.02663;
0.000608721;1.02662;
0.000608746;1.02661;
0.00060878;1.0266;
0.000608824;1.02658;
0.000608885;1.02656;
0.000608967;1.02653;
0.000609085;1.02649;
0.000609266;1.02643;
0.000609489;1.02636;
0.000609717;1.02629;
0.000609856;1.02625;
0.000609979;1.02622;
0.00061011;1.02618;
0.000610273;1.02614;
0.000610455;1.02609;
0.0006107;1.02603;
0.000611018;1.02596;
0.000611455;1.02586;
0.000612076;1.02574;
0.000612954;1.0256;
0.00061346;1.02552;
0.000614041;1.02545;
0.000614557;1.02539;
0.000615118;1.02533;
0.000615866;1.02526;
0.000616762;1.02519;
0.000617762;1.02513;
0.000618762;1.02507;
0.000619762;1.02503;
0.000620762;1.02499;
0.000621762;1.02496;
0.000622762;1.02493;
0.000623762;1.02491;
0.000624762;1.02489;
0.000625762;1.02488;
0.000626762;1.02487;
0.000627762;1.02486;
0.000628762;1.02485;
0.000629762;1.02484;
0.000630762;1.02483;
0.000631762;1.02483;
0.000632762;1.02482;
0.000633762;1.02482;
0.000634762;1.02482;
0.000635762;1.02482;
0.000636762;1.02481;
0.000637762;1.02481;
0.000638762;1.02481;
0.000639762;1.02481;
0.000640002;1.02481;
0.000640002;1.02481;
0.000640003;1.02481;
0.000640003;1.02481;
0.000640004;1.02481;
0.000640004;1.02481;
0.000640004;1.02481;
0.000640005;1.02481;
0.000640006;1.02481;
0.000640009;1.02481;
0.000640014;1.02481;
0.000640024;1.02481;
0.000640045;1.02481;
0.000640086;1.02481;
0.000640168;1.02482;
0.000640332;1.02485;
0.000640659;1.025;
0.000641315;1.0255;
0.000642002;1.02618;
0.000642719;1.02695;
0.000643284;1.02754;
0.000643876;1.02813;
0.000644492;1.02869;
0.000645375;1.0294;
0.000646375;1.03007;
0.000647375;1.03062;
0.000648375;1.03106;
0.000649375;1.03141;
0.000649755;1.03153;
0.000650013;1.0316;
0.000650276;1.03167;
0.000650474;1.03172;
0.000650688;1.03178;
0.000650731;1.03179;
0.000650735;1.03179;
0.000650737;1.03179;
0.000650738;1.03179;
0.000650738;1.03179;
0.000650739;1.03179;
0.000650739;1.03179;
0.00065074;1.03179;
0.00065074;1.03179;
0.000650741;1.03179;
0.000650743;1.03179;
0.000650747;1.03179;
0.000650749;1.03179;
0.00065075;1.03179;
0.00065075;1.03179;
0.000650751;1.03179;
0.000650751;1.03179;
0.000650752;1.03179;
0.000650753;1.03179;
0.000650754;1.03179;
0.000650755;1.03179;
0.000650756;1.03179;
0.000650757;1.03179;
0.000650758;1.03179;
0.00065076;1.03179;
0.000650761;1.03179;
0.000650762;1.03179;
0.000650765;1.03179;
0.00065077;1.0318;
0.000650777;1.0318;
0.000650785;1.0318;
0.000650795;1.0318;
0.000650807;1.0318;
0.000650825;1.03181;
0.000650851;1.03181;
0.000650896;1.03182;
0.000650987;1.03185;
0.000651169;1.03189;
0.000651533;1.03196;
0.000651938;1.03204;
0.000652747;1.03218;
0.000653253;1.03225;
0.000653865;1.03234;
0.000654337;1.03239;
0.00065486;1.03245;
0.000655586;1.03252;
0.000656409;1.03259;
0.000657409;1.03266;
0.000658409;1.03272;
0.000659409;1.03276;
0.000660409;1.0328;
0.000661409;1.03284;
0.000662409;1.03286;
0.000663409;1.03289;
0.000664409;1.03291;
0.000665409;1.03292;
0.000666409;1.03294;
0.000667409;1.03295;
0.000668409;1.03296;
0.000669409;1.03296;
0.000670409;1.03297;
0.000671409;1.03298;
0.000672409;1.03298;
0.000673409;1.03298;
0.000674409;1.03299;
0.000675409;1.03299;
0.000676409;1.03299;
0.000677409;1.03299;
0.000678409;1.033;
0.000679409;1.033;
0.000680004;1.033;
0.000680004;1.033;
0.000680005;1.033;
0.000680005;1.033;
0.000680006;1.033;
0.000680006;1.033;
0.000680006;1.033;
0.000680007;1.033;
0.000680008;1.033;
0.000680011;1.033;
0.000680016;1.033;
0.000680026;1.033;
0.000680047;1.033;
0.000680088;1.033;
0.00068017;1.03299;
0.000680334;1.03295;
0.000680661;1.03281;
0.000681308;1.03232;
0.000681962;1.03167;
0.000682748;1.03083;
0.000683332;1.03022;
0.000684009;1.02955;
0.000684666;1.02897;
0.000685649;1.02821;
0.000686649;1.02757;
0.000687649;1.02706;
0.000688035;1.02689;
0.00068828;1.02679;
0.00068842;1.02673;
0.000688502;1.0267;
0.00068855;1.02668;
0.000688579;1.02667;
0.000688601;1.02666;
0.000688623;1.02665;
0.000688645;1.02665;
0.000688669;1.02664;
0.000688676;1.02664;
0.00068868;1.02663;
0.000688685;1.02663;
0.000688691;1.02663;
0.000688702;1.02663;
0.000688721;1.02662;
0.000688746;1.02661;
0.00068878;1.0266;
0.000688825;1.02658;
0.000688885;1.02656;
0.000688968;1.02653;
0.000689086;1.02649;
0.000689269;1.02643;
0.000689494;1.02636;
0.000689725;1.02629;
0.00068987;1.02625;
0.000689996;1.02621;
0.000690131;1.02617;
0.000690305;1.02613;
0.000690496;1.02608;
0.00069076;1.02601;
0.000691101;1.02594;
0.000691569;1.02584;
0.000692238;1.02571;
0.000693177;1.02556;
0.000693865;1.02547;
0.00069457;1.02539;
0.000695264;1.02532;
0.000696103;1.02524;
0.000697097;1.02517;
0.000698097;1.02511;
0.000699097;1.02506;
0.000700097;1.02501;
0.000701097;1.02498;
0.000702097;1.02495;
0.000703097;1.02492;
0.000704097;1.0249;
0.000705097;1.02489;
0.000706097;1.02487;
0.000707097;1.02486;
0.000708097;1.02485;
0.000709097;1.02484;
0.000710097;1.02484;
0.000711097;1.02483;
0.000712097;1.02483;
0.000713097;1.02482;
0.000714097;1.02482;
0.000715097;1.02482;
0.000716097;1.02481;
0.000717097;1.02481;
0.000718097;1.02481;
0.000719097;1.02481;
0.000720002;1.02481;
0.000720002;1.02481;
0.000720003;1.02481;
0.000720003;1.02481;
0.000720004;1.02481;
0.000720004;1.02481;
0.000720004;1.02481;
0.000720005;1.02481;
0.000720006;1.02481;
0.000720009;1.02481;
0.000720014;1.02481;
0.000720024;1.02481;
0.000720045;1.02481;
0.000720086;1.02481;
0.000720168;1.02482;
0.000720332;1.02485;
0.000720659;1.025;
0.000721315;1.0255;
0.000722002;1.02618;
0.000722719;1.02695;
0.000723284;1.02754;
0.000723876;1.02813;
0.000724492;1.02869;
0.000725375;1.0294;
0.000726375;1.03007;
0.000727375;1.03062;
0.000728375;1.03106;
0.000729375;1.03141;
0.000729755;1.03153;
0.000730013;1.0316;
0.000730276;1.03167;
0.000730475;1.03172;
0.000730689;1.03178;
0.000730731;1.03179;
0.000730736;1.03179;
0.000730738;1.03179;
0.000730739;1.03179;
0.000730739;1.03179;
0.00073074;1.03179;
0.00073074;1.03179;
0.00073074;1.03179;
0.000730741;1.03179;
0.000730742;1.03179;
0.000730744;1.03179;
0.000730747;1.03179;
0.00073075;1.03179;
0.000730751;1.03179;
0.000730752;1.03179;
0.000730752;1.03179;
0.000730753;1.03179;
0.000730753;1.03179;
0.000730753;1.03179;
0.000730754;1.03179;
0.000730754;1.03179;
0.000730755;1.03179;
0.000730756;1.03179;
0.000730757;1.03179;
0.000730758;1.03179;
0.000730759;1.03179;
0.00073076;1.03179;
0.000730761;1.03179;
0.000730762;1.03179;
0.000730763;1.03179;
0.000730765;1.03179;
0.000730767;1.03179;
0.000730772;1.0318;
0.000730779;1.0318;
0.000730787;1.0318;
0.000730796;1.0318;
0.000730808;1.0318;
0.000730825;1.03181;
0.000730849;1.03181;
0.000730891;1.03182;
0.000730975;1.03184;
0.000731143;1.03188;
0.00073148;1.03195;
0.000732042;1.03206;
0.000732805;1.03219;
0.000733298;1.03226;
0.000733988;1.03235;
0.000734445;1.0324;
0.000734997;1.03246;
0.000735922;1.03255;
0.000736907;1.03262;
0.000737907;1.03269;
0.000738907;1.03274;
0.000739907;1.03279;
0.000740907;1.03282;
0.000741907;1.03285;
0.000742907;1.03288;
0.000743907;1.0329;
0.000744907;1.03292;
0.000745907;1.03293;
0.000746907;1.03294;
0.000747907;1.03295;
0.000748907;1.03296;
0.000749907;1.03297;
0.000750907;1.03297;
0.000751907;1.03298;
0.000752907;1.03298;
0.000753907;1.03299;
0.000754907;1.03299;
0.000755907;1.03299;
0.000756907;1.03299;
0.000757907;1.03299;
0.000758907;1.033;
0.000759907;1.033;
0.000760004;1.033;
0.000760004;1.033;
0.000760005;1.033;
0.000760005;1.033;
0.000760006;1.033;
0.000760006;1.033;
0.000760006;1.033;
0.000760007;1.033;
0.000760008;1.033;
0.000760011;1.033;
0.000760016;1.033;
0.000760026;1.033;
0.000760047;1.033;
0.000760088;1.033;
0.00076017;1.03299;
0.000760334;1.03295;
0.000760661;1.03281;
0.000761308;1.03232;
0.000761962;1.03167;
0.000762748;1.03083;
0.000763332;1.03022;
0.000764009;1.02955;
0.000764666;1.02897;
0.000765649;1.02821;
0.000766649;1.02757;
0.000767649;1.02706;
0.000768035;1.02689;
0.00076828;1.02679;
0.00076842;1.02673;
0.000768502;1.0267;
0.00076855;1.02668;
0.000768579;1.02667;
0.000768601;1.02666;
0.000768623;1.02665;
0.000768645;1.02665;
0.000768669;1.02664;
0.000768676;1.02664;
0.00076868;1.02663;
0.000768685;1.02663;
0.000768691;1.02663;
0.000768702;1.02663;
0.000768721;1.02662;
0.000768746;1.02661;
0.00076878;1.0266;
0.000768824;1.02658;
0.000768885;1.02656;
0.000768967;1.02653;
0.000769085;1.02649;
0.000769266;1.02643;
0.000769491;1.02636;
0.000769719;1.02629;
0.000769859;1.02625;
0.000769983;1.02621;
0.000770115;1.02618;
0.00077028;1.02613;
0.000770464;1.02609;
0.000770713;1.02603;
0.000771036;1.02595;
0.000771479;1.02586;
0.00077211;1.02574;
0.000773001;1.02559;
0.000773531;1.02551;
0.000774127;1.02544;
0.000774687;1.02537;
0.000775277;1.02532;
0.000776057;1.02525;
0.00077699;1.02518;
0.00077799;1.02511;
0.00077899;1.02506;
0.00077999;1.02502;
0.00078099;1.02498;
0.00078199;1.02495;
0.00078299;1.02493;
0.00078399;1.02491;
0.00078499;1.02489;
0.00078599;1.02487;
0.00078699;1.02486;
0.00078799;1.02485;
0.00078899;1.02484;
0.00078999;1.02484;
0.00079099;1.02483;
0.00079199;1.02483;
0.00079299;1.02482;
0.00079399;1.02482;
0.00079499;1.02482;
0.00079599;1.02481;
0.00079699;1.02481;
0.00079799;1.02481;
0.00079899;1.02481;
0.00079999;1.02481;
0.000800002;1.02481;
0.000800002;1.02481;
0.000800003;1.02481;
0.000800003;1.02481;
0.000800004;1.02481;
0.000800004;1.02481;
0.000800004;1.02481;
0.000800005;1.02481;
0.000800006;1.02481;
0.000800009;1.02481;
0.000800014;1.02481;
0.000800024;1.02481;
0.000800045;1.02481;
0.000800086;1.02481;
0.000800168;1.02482;
0.000800332;1.02485;
0.000800659;1.025;
0.000801315;1.0255;
0.000802002;1.02618;
0.000802718;1.02695;
0.000803284;1.02754;
0.000803876;1.02813;
0.000804491;1.02869;
0.000805374;1.0294;
0.000806374;1.03007;
0.000807374;1.03062;
0.000808374;1.03106;
0.000809374;1.03141;
0.000809754;1.03153;
0.000810012;1.0316;
0.000810274;1.03167;
0.000810473;1.03172;
0.000810687;1.03178;
0.00081073;1.03179;
0.000810733;1.03179;
0.000810734;1.03179;
0.000810735;1.03179;
0.000810735;1.03179;
0.000810736;1.03179;
0.000810736;1.03179;
0.000810737;1.03179;
0.000810737;1.03179;
0.000810739;1.03179;
0.000810741;1.03179;
0.000810746;1.03179;
0.000810754;1.03179;
0.000810762;1.03179;
0.000810772;1.0318;
0.000810784;1.0318;
0.000810802;1.0318;
0.000810827;1.03181;
0.000810873;1.03182;
0.000810965;1.03184;
0.000811149;1.03188;
0.000811517;1.03196;
0.000811888;1.03203;
0.00081263;1.03216;
0.000813162;1.03224;
0.000813646;1.03231;
0.00081414;1.03237;
0.000814633;1.03243;
0.000815171;1.03248;
0.000815882;1.03255;
0.000816804;1.03262;
0.000817804;1.03268;
0.000818804;1.03274;
0.000819804;1.03278;
0.000820804;1.03282;
0.000821804;1.03285;
0.000822804;1.03287;
0.000823804;1.0329;
0.000824804;1.03291;
0.000825804;1.03293;
0.000826804;1.03294;
0.000827804;1.03295;
0.000828804;1.03296;
0.000829804;1.03297;
0.000830804;1.03297;
0.000831804;1.03298;
0.000832804;1.03298;
0.000833804;1.03299;
0.000834804;1.03299;
0.000835804;1.03299;
0.000836804;1.03299;
0.000837804;1.03299;
0.000838804;1.033;
0.000839804;1.033;
0.000840004;1.033;
0.000840004;1.033;
0.000840005;1.033;
0.000840005;1.033;
0.000840006;1.033;
0.000840006;1.033;
0.000840006;1.033;
0.000840007;1.033;
0.000840008;1.033;
0.000840011;1.033;
0.000840016;1.033;
0.000840026;1.033;
0.000840047;1.033;
0.000840088;1.033;
0.00084017;1.03299;
0.000840334;1.03295;
0.000840661;1.03281;
0.000841308;1.03232;
0.000841962;1.03167;
0.000842748;1.03083;
0.000843333;1.03022;
0.000844009;1.02955;
0.000844667;1.02897;
0.000845649;1.02821;
0.000846649;1.02757;
0.000847649;1.02706;
0.000848035;1.02689;
0.00084828;1.02679;
0.00084842;1.02673;
0.000848502;1.0267;
0.00084855;1.02668;
0.000848579;1.02667;
0.0008486;1.02666;
0.000848623;1.02665;
0.000848644;1.02665;
0.000848668;1.02664;
0.000848675;1.02664;
0.00084868;1.02663;
0.000848685;1.02663;
0.000848691;1.02663;
0.000848702;1.02663;
0.000848721;1.02662;
0.000848745;1.02661;
0.000848779;1.0266;
0.000848823;1.02658;
0.000848883;1.02656;
0.000848965;1.02653;
0.000849082;1.02649;
0.00084926;1.02643;
0.00084948;1.02636;
0.000849704;1.02629;
0.000849831;1.02626;
0.000849948;1.02622;
0.000850073;1.02619;
0.000850217;1.02615;
0.000850384;1.02611;
0.000850601;1.02605;
0.000850884;1.02599;
0.000851272;1.0259;
0.000851822;1.02579;
0.000852609;1.02565;
0.000853195;1.02556;
0.00085401;1.02545;
0.000854593;1.02539;
0.000855234;1.02532;
0.000856234;1.02523;
0.000857234;1.02516;
0.000858234;1.0251;
0.000859234;1.02505;
0.000860234;1.02501;
0.000861234;1.02497;
0.000862234;1.02495;
0.000863234;1.02492;
0.000864234;1.0249;
0.000865234;1.02489;
0.000866234;1.02487;
0.000867234;1.02486;
0.000868234;1.02485;
0.000869234;1.02484;
0.000870234;1.02484;
0.000871234;1.02483;
0.000872234;1.02483;
0.000873234;1.02482;
0.000874234;1.02482;
0.000875234;1.02482;
0.000876234;1.02481;
0.000877234;1.02481;
0.000878234;1.02481;
0.000879234;1.02481;
0.000880002;1.02481;
0.000880002;1.02481;
0.000880003;1.02481;
0.000880003;1.02481;
0.000880004;1.02481;
0.000880004;1.02481;
0.000880004;1.02481;
0.000880005;1.02481;
0.000880006;1.02481;
0.000880009;1.02481;
0.000880014;1.02481;
0.000880024;1.02481;
0.000880045;1.02481;
0.000880086;1.02481;
0.000880168;1.02482;
0.000880332;1.02485;
0.000880659;1.025;
0.000881315;1.0255;
0.000882002;1.02618;
0.000882718;1.02695;
0.000883284;1.02754;
0.000883875;1.02813;
0.000884491;1.02869;
0.000885374;1.0294;
0.000886374;1.03007;
0.000887374;1.03062;
0.000888374;1.03106;
0.000889374;1.03141;
0.000889753;1.03153;
0.000890011;1.0316;
0.000890274;1.03167;
0.000890472;1.03172;
0.000890686;1.03178;
0.000890729;1.03179;
0.000890733;1.03179;
0.000890735;1.03179;
0.000890736;1.03179;
0.000890736;1.03179;
0.000890737;1.03179;
0.000890737;1.03179;
0.000890738;1.03179;
0.000890739;1.03179;
0.00089074;1.03179;
0.000890741;1.03179;
0.000890745;1.03179;
0.000890751;1.03179;
0.000890757;1.03179;
0.000890764;1.03179;
0.000890771;1.0318;
0.000890781;1.0318;
0.000890793;1.0318;
0.00089081;1.0318;
0.000890835;1.03181;
0.000890877;1.03182;
0.00089096;1.03184;
0.000891127;1.03188;
0.000891461;1.03195;
0.000891958;1.03204;
0.000892495;1.03214;
0.000893055;1.03223;
0.000893443;1.03228;
0.000893886;1.03234;
0.000894272;1.03238;
0.000894697;1.03243;
0.000895313;1.03249;
0.000896091;1.03256;
0.000897091;1.03264;
0.000898091;1.0327;
0.000899091;1.03275;
0.000900091;1.03279;
0.000901091;1.03283;
0.000902091;1.03286;
0.000903091;1.03288;
0.000904091;1.0329;
0.000905091;1.03292;
0.000906091;1.03293;
0.000907091;1.03294;
0.000908091;1.03295;
0.000909091;1.03296;
0.000910091;1.03297;
0.000911091;1.03297;
0.000912091;1.03298;
0.000913091;1.03298;
0.000914091;1.03299;
0.000915091;1.03299;
0.000916091;1.03299;
0.000917091;1.03299;
0.000918091;1.03299;
0.000919091;1.033;
0.000920004;1.033;
0.000920004;1.033;
0.000920005;1.033;
0.000920005;1.033;
0.000920006;1.033;
0.000920006;1.033;
0.000920006;1.033;
0.000920007;1.033;
0.000920008;1.033;
0.000920011;1.033;
0.000920016;1.033;
0.000920026;1.033;
0.000920047;1.033;
0.000920088;1.033;
0.00092017;1.03299;
0.000920334;1.03295;
0.000920661;1.03281;
0.000921308;1.03232;
0.000921962;1.03167;
0.000922748;1.03083;
0.000923333;1.03022;
0.000924009;1.02955;
0.000924667;1.02897;
0.000925649;1.02821;
0.000926649;1.02757;
0.000927649;1.02706;
0.000928035;1.02689;
0.00092828;1.02679;
0.00092842;1.02673;
0.000928502;1.0267;
0.00092855;1.02668;
0.000928579;1.02667;
0.0009286;1.02666;
0.000928623;1.02665;
0.000928644;1.02665;
0.000928668;1.02664;
0.000928675;1.02664;
0.00092868;1.02663;
0.000928685;1.02663;
0.00092869;1.02663;
0.000928701;1.02663;
0.000928719;1.02662;
0.000928744;1.02661;
0.000928777;1.0266;
0.00092882;1.02658;
0.000928879;1.02656;
0.000928959;1.02653;
0.000929073;1.02649;
0.000929246;1.02644;
0.000929456;1.02637;
0.000929671;1.0263;
0.000929782;1.02627;
0.000929912;1.02623;
0.000930033;1.0262;
0.000930162;1.02617;
0.000930344;1.02612;
0.000930549;1.02607;
0.000930848;1.02599;
0.000931254;1.0259;
0.000931833;1.02579;
0.000932697;1.02564;
0.000933271;1.02555;
0.000934011;1.02545;
0.000934528;1.02539;
0.000935179;1.02532;
0.000936179;1.02524;
0.000937179;1.02516;
0.000938179;1.0251;
0.000939179;1.02505;
0.000940179;1.02501;
0.000941179;1.02498;
0.000942179;1.02495;
0.000943179;1.02492;
0.000944179;1.0249;
0.000945179;1.02489;
0.000946179;1.02487;
0.000947179;1.02486;
0.000948179;1.02485;
0.000949179;1.02484;
0.000950179;1.02484;
0.000951179;1.02483;
0.000952179;1.02483;
0.000953179;1.02482;
0.000954179;1.02482;
0.000955179;1.02482;
0.000956179;1.02481;
0.000957179;1.02481;
0.000958179;1.02481;
0.000959179;1.02481;
0.000960002;1.02481;
0.000960002;1.02481;
0.000960003;1.02481;
0.000960003;1.02481;
0.000960004;1.02481;
0.000960004;1.02481;
0.000960004;1.02481;
0.000960005;1.02481;
0.000960006;1.02481;
0.000960009;1.02481;
0.000960014;1.02481;
0.000960024;1.02481;
0.000960045;1.02481;
0.000960086;1.02481;
0.000960168;1.02482;
0.000960332;1.02485;
0.000960659;1.025;
0.000961315;1.0255;
0.000962002;1.02618;
0.000962718;1.02695;
0.000963284;1.02754;
0.000963875;1.02813;
0.000964491;1.02869;
0.000965374;1.0294;
0.000966374;1.03007;
0.000967374;1.03062;
0.000968374;1.03106;
0.000969374;1.03141;
0.000969753;1.03153;
0.000970011;1.0316;
0.000970274;1.03167;
0.000970472;1.03172;
0.000970686;1.03178;
0.000970729;1.03179;
0.000970733;1.03179;
0.000970734;1.03179;
0.000970735;1.03179;
0.000970735;1.03179;
0.000970736;1.03179;
0.000970736;1.03179;
0.000970737;1.03179;
0.000970738;1.03179;
0.000970739;1.03179;
0.000970741;1.03179;
0.000970745;1.03179;
0.000970753;1.03179;
0.000970759;1.03179;
0.000970768;1.03179;
0.000970778;1.0318;
0.000970791;1.0318;
0.000970809;1.0318;
0.000970838;1.03181;
0.000970886;1.03182;
0.000970981;1.03184;
0.000971172;1.03189;
0.000971553;1.03197;
0.000971953;1.03204;
0.000972752;1.03218;
0.000973253;1.03225;
0.000973866;1.03234;
0.000974336;1.03239;
0.000974857;1.03245;
0.000975587;1.03252;
0.000976412;1.03259;
0.000977412;1.03266;
0.000978412;1.03272;
0.000979412;1.03276;
0.000980412;1.0328;
0.000981412;1.03284;
0.000982412;1.03286;
0.000983412;1.03289;
0.000984412;1.03291;
0.000985412;1.03292;
0.000986412;1.03294;
0.000987412;1.03295;
0.000988412;1.03296;
0.000989412;1.03296;
0.000990412;1.03297;
0.000991412;1.03298;
0.000992412;1.03298;
0.000993412;1.03298;
0.000994412;1.03299;
0.000995412;1.03299;
0.000996412;1.03299;
0.000997412;1.03299;
0.000998412;1.033;
0.000999412;1.033;
0.001;1.033;
