time;V(V_tia);
(s);(V)

0;1.0248;
2e-11;1.0248;
4e-11;1.0248;
8e-11;1.0248;
1.6e-10;1.0248;
3.2e-10;1.0248;
6.4e-10;1.0248;
1.28e-09;1.0248;
2e-09;1.0248;
2.128e-09;1.0248;
2.384e-09;1.0248;
2.896e-09;1.0248;
3.92e-09;1.0248;
4e-09;1.0248;
4.16e-09;1.0248;
4.48e-09;1.0248;
5.12e-09;1.0248;
6.4e-09;1.0248;
8.96e-09;1.0248;
1.408e-08;1.0248;
2.432e-08;1.0248;
4.48e-08;1.0248;
8.576e-08;1.0248;
1.6768e-07;1.02481;
3.3152e-07;1.02484;
6.592e-07;1.02496;
9.64791e-07;1.02512;
1.26903e-06;1.02529;
1.55589e-06;1.02546;
1.87661e-06;1.02566;
2.22296e-06;1.02587;
2.62515e-06;1.02611;
3.00513e-06;1.02633;
3.07568e-06;1.02637;
3.11005e-06;1.02639;
3.11541e-06;1.02639;
3.11816e-06;1.02639;
3.1197e-06;1.02639;
3.1206e-06;1.02639;
3.12122e-06;1.0264;
3.12174e-06;1.0264;
3.12228e-06;1.0264;
3.12284e-06;1.0264;
3.1236e-06;1.0264;
3.12472e-06;1.0264;
3.12659e-06;1.0264;
3.13013e-06;1.0264;
3.13484e-06;1.0264;
3.13986e-06;1.02641;
3.1449e-06;1.02641;
3.15045e-06;1.02641;
3.1567e-06;1.02642;
3.16416e-06;1.02642;
3.173e-06;1.02642;
3.18431e-06;1.02643;
3.19899e-06;1.02644;
3.22052e-06;1.02645;
3.25386e-06;1.02647;
3.32053e-06;1.02651;
3.45388e-06;1.02658;
3.72056e-06;1.02673;
4.25394e-06;1.02701;
5.03008e-06;1.02739;
5.8541e-06;1.02777;
6.46703e-06;1.02804;
6.92505e-06;1.02823;
7.43321e-06;1.02843;
7.98495e-06;1.02864;
8.50393e-06;1.02883;
9.27564e-06;1.0291;
1.01974e-05;1.02939;
1.11974e-05;1.02969;
1.21974e-05;1.02996;
1.31974e-05;1.0302;
1.41974e-05;1.03043;
1.51974e-05;1.03064;
1.61974e-05;1.03083;
1.71974e-05;1.03101;
1.81974e-05;1.03117;
1.91974e-05;1.03132;
2.01974e-05;1.03146;
2.11974e-05;1.03158;
2.21974e-05;1.0317;
2.31974e-05;1.0318;
2.41974e-05;1.0319;
2.51974e-05;1.03199;
2.61974e-05;1.03207;
2.71974e-05;1.03215;
2.81974e-05;1.03221;
2.91974e-05;1.03228;
3.01974e-05;1.03234;
3.11974e-05;1.03239;
3.21974e-05;1.03244;
3.31974e-05;1.03248;
3.41974e-05;1.03253;
3.51974e-05;1.03256;
3.61974e-05;1.0326;
3.71974e-05;1.03263;
3.81974e-05;1.03266;
3.91974e-05;1.03269;
4.0004e-05;1.03271;
4.00042e-05;1.03271;
4.00046e-05;1.03271;
4.00054e-05;1.03271;
4.0006e-05;1.03271;
4.00062e-05;1.03271;
4.00065e-05;1.03271;
4.00071e-05;1.03271;
4.00084e-05;1.03271;
4.0011e-05;1.03271;
4.00161e-05;1.03271;
4.00263e-05;1.03271;
4.00468e-05;1.03271;
4.00878e-05;1.03271;
4.01697e-05;1.03271;
4.03335e-05;1.03268;
4.06612e-05;1.03257;
4.114e-05;1.03233;
4.16128e-05;1.03205;
4.22452e-05;1.03168;
4.30468e-05;1.03123;
4.40468e-05;1.0307;
4.49982e-05;1.03024;
4.58662e-05;1.02985;
4.68662e-05;1.02944;
4.78662e-05;1.02906;
4.88662e-05;1.02871;
4.98662e-05;1.02839;
5.08662e-05;1.0281;
5.11468e-05;1.02802;
5.12701e-05;1.02799;
5.13708e-05;1.02796;
5.14684e-05;1.02793;
5.15646e-05;1.02791;
5.17078e-05;1.02787;
5.18498e-05;1.02783;
5.20701e-05;1.02778;
5.21829e-05;1.02775;
5.23211e-05;1.02771;
5.24364e-05;1.02769;
5.25663e-05;1.02765;
5.2826e-05;1.02759;
5.31151e-05;1.02752;
5.36565e-05;1.0274;
5.4476e-05;1.02723;
5.5476e-05;1.02703;
5.60788e-05;1.02692;
5.67395e-05;1.0268;
5.73902e-05;1.0267;
5.80567e-05;1.02659;
5.89212e-05;1.02647;
5.99212e-05;1.02633;
6.09212e-05;1.02621;
6.19212e-05;1.02609;
6.29212e-05;1.02599;
6.39212e-05;1.02589;
6.49212e-05;1.02581;
6.59212e-05;1.02572;
6.69212e-05;1.02565;
6.79212e-05;1.02558;
6.89212e-05;1.02552;
6.99212e-05;1.02546;
7.09212e-05;1.02541;
7.19212e-05;1.02536;
7.29212e-05;1.02531;
7.39212e-05;1.02527;
7.49212e-05;1.02524;
7.59212e-05;1.0252;
7.69212e-05;1.02517;
7.79212e-05;1.02514;
7.89212e-05;1.02511;
7.99212e-05;1.02509;
8.0002e-05;1.02509;
8.00022e-05;1.02509;
8.00026e-05;1.02509;
8.00034e-05;1.02509;
8.0004e-05;1.02509;
8.00042e-05;1.02509;
8.00045e-05;1.02509;
8.00051e-05;1.02509;
8.00064e-05;1.02509;
8.0009e-05;1.02508;
8.00141e-05;1.02508;
8.00243e-05;1.02508;
8.00448e-05;1.02508;
8.00858e-05;1.02508;
8.01677e-05;1.02508;
8.03315e-05;1.02511;
8.06592e-05;1.02523;
8.12008e-05;1.0255;
8.1729e-05;1.02581;
8.24865e-05;1.02626;
8.34308e-05;1.02678;
8.44308e-05;1.02729;
8.53623e-05;1.02773;
8.62745e-05;1.02812;
8.72745e-05;1.02852;
8.82745e-05;1.02889;
8.92745e-05;1.02923;
9.02745e-05;1.02953;
9.12745e-05;1.02982;
9.17113e-05;1.02993;
9.19808e-05;1.03;
9.21526e-05;1.03005;
9.23967e-05;1.03011;
9.25678e-05;1.03015;
9.27566e-05;1.03019;
9.28319e-05;1.03021;
9.28682e-05;1.03022;
9.2874e-05;1.03022;
9.28772e-05;1.03022;
9.28793e-05;1.03022;
9.28807e-05;1.03022;
9.28816e-05;1.03022;
9.28824e-05;1.03022;
9.28832e-05;1.03022;
9.2884e-05;1.03023;
9.28849e-05;1.03023;
9.2886e-05;1.03023;
9.28876e-05;1.03023;
9.28899e-05;1.03023;
9.28935e-05;1.03023;
9.28976e-05;1.03023;
9.29018e-05;1.03023;
9.29058e-05;1.03023;
9.291e-05;1.03023;
9.29143e-05;1.03023;
9.2919e-05;1.03023;
9.29238e-05;1.03023;
9.29292e-05;1.03024;
9.29352e-05;1.03024;
9.29421e-05;1.03024;
9.29504e-05;1.03024;
9.29605e-05;1.03024;
9.29738e-05;1.03025;
9.29918e-05;1.03025;
9.302e-05;1.03026;
9.30675e-05;1.03027;
9.31626e-05;1.03029;
9.33526e-05;1.03033;
9.37328e-05;1.03042;
9.41391e-05;1.03051;
9.47888e-05;1.03064;
9.51259e-05;1.03071;
9.55384e-05;1.03079;
9.58384e-05;1.03084;
9.62036e-05;1.03091;
9.67083e-05;1.03099;
9.73587e-05;1.0311;
9.83587e-05;1.03126;
9.93587e-05;1.0314;
0.000100359;1.03153;
0.000101359;1.03165;
0.000102359;1.03176;
0.000103359;1.03186;
0.000104359;1.03195;
0.000105359;1.03204;
0.000106359;1.03211;
0.000107359;1.03219;
0.000108359;1.03225;
0.000109359;1.03231;
0.000110359;1.03237;
0.000111359;1.03242;
0.000112359;1.03247;
0.000113359;1.03251;
0.000114359;1.03255;
0.000115359;1.03259;
0.000116359;1.03262;
0.000117359;1.03265;
0.000118359;1.03268;
0.000119359;1.0327;
0.000120004;1.03272;
0.000120004;1.03272;
0.000120005;1.03272;
0.000120005;1.03272;
0.000120006;1.03272;
0.000120006;1.03272;
0.000120006;1.03272;
0.000120007;1.03272;
0.000120008;1.03272;
0.000120011;1.03272;
0.000120016;1.03272;
0.000120026;1.03272;
0.000120047;1.03272;
0.000120088;1.03272;
0.00012017;1.03272;
0.000120334;1.03269;
0.000120661;1.03258;
0.00012114;1.03234;
0.000121613;1.03206;
0.000122245;1.03169;
0.000123047;1.03123;
0.000124047;1.03071;
0.000124979;1.03025;
0.000125845;1.02986;
0.000126845;1.02945;
0.000127845;1.02907;
0.000128845;1.02872;
0.000129845;1.0284;
0.000130845;1.02811;
0.000131125;1.02803;
0.000131256;1.02799;
0.000131387;1.02796;
0.000131512;1.02792;
0.000131648;1.02789;
0.000131819;1.02784;
0.000132028;1.02779;
0.000132142;1.02776;
0.000132263;1.02773;
0.000132374;1.0277;
0.000132508;1.02767;
0.000132659;1.02763;
0.000132849;1.02759;
0.000133104;1.02753;
0.000133445;1.02745;
0.000133935;1.02734;
0.000134637;1.0272;
0.000135409;1.02705;
0.000135967;1.02694;
0.000136565;1.02684;
0.000137217;1.02673;
0.000137855;1.02663;
0.000138747;1.02649;
0.000139747;1.02636;
0.000140747;1.02623;
0.000141747;1.02611;
0.000142747;1.02601;
0.000143747;1.02591;
0.000144747;1.02582;
0.000145747;1.02574;
0.000146747;1.02566;
0.000147747;1.02559;
0.000148747;1.02553;
0.000149747;1.02547;
0.000150747;1.02542;
0.000151747;1.02537;
0.000152747;1.02532;
0.000153747;1.02528;
0.000154747;1.02524;
0.000155747;1.02521;
0.000156747;1.02517;
0.000157747;1.02514;
0.000158747;1.02512;
0.000159747;1.02509;
0.000160002;1.02509;
0.000160002;1.02509;
0.000160003;1.02509;
0.000160003;1.02509;
0.000160004;1.02509;
0.000160004;1.02509;
0.000160004;1.02509;
0.000160005;1.02509;
0.000160006;1.02509;
0.000160009;1.02509;
0.000160014;1.02508;
0.000160024;1.02508;
0.000160045;1.02508;
0.000160086;1.02508;
0.000160168;1.02508;
0.000160332;1.02511;
0.000160659;1.02523;
0.000161201;1.0255;
0.000161729;1.02581;
0.000162486;1.02626;
0.000163431;1.02678;
0.000164431;1.02729;
0.000165363;1.02773;
0.000166275;1.02812;
0.000167275;1.02852;
0.000168275;1.02889;
0.000169275;1.02923;
0.000170275;1.02954;
0.000171275;1.02982;
0.000171714;1.02993;
0.000171984;1.03;
0.000172156;1.03005;
0.000172401;1.03011;
0.000172572;1.03015;
0.000172761;1.0302;
0.000172836;1.03021;
0.000172872;1.03022;
0.000172878;1.03022;
0.000172881;1.03022;
0.000172883;1.03022;
0.000172884;1.03023;
0.000172885;1.03023;
0.000172886;1.03023;
0.000172887;1.03023;
0.000172887;1.03023;
0.000172888;1.03023;
0.00017289;1.03023;
0.000172891;1.03023;
0.000172894;1.03023;
0.000172898;1.03023;
0.000172902;1.03023;
0.000172906;1.03023;
0.00017291;1.03023;
0.000172914;1.03023;
0.000172919;1.03023;
0.000172924;1.03023;
0.000172929;1.03024;
0.000172934;1.03024;
0.00017294;1.03024;
0.000172947;1.03024;
0.000172956;1.03024;
0.000172967;1.03024;
0.000172981;1.03025;
0.000173;1.03025;
0.000173033;1.03026;
0.000173087;1.03027;
0.000173197;1.0303;
0.000173415;1.03035;
0.000173842;1.03044;
0.000174271;1.03053;
0.000174743;1.03063;
0.000175055;1.03069;
0.000175447;1.03077;
0.000175724;1.03082;
0.000176091;1.03089;
0.000176825;1.03101;
0.000177825;1.03118;
0.000178825;1.03132;
0.000179825;1.03146;
0.000180825;1.03159;
0.000181825;1.0317;
0.000182825;1.03181;
0.000183825;1.0319;
0.000184825;1.03199;
0.000185825;1.03207;
0.000186825;1.03215;
0.000187825;1.03222;
0.000188825;1.03228;
0.000189825;1.03234;
0.000190825;1.03239;
0.000191825;1.03244;
0.000192825;1.03249;
0.000193825;1.03253;
0.000194825;1.03257;
0.000195825;1.0326;
0.000196825;1.03263;
0.000197825;1.03266;
0.000198825;1.03269;
0.000199825;1.03272;
0.000200004;1.03272;
0.000200004;1.03272;
0.000200005;1.03272;
0.000200005;1.03272;
0.000200006;1.03272;
0.000200006;1.03272;
0.000200006;1.03272;
0.000200007;1.03272;
0.000200008;1.03272;
0.000200011;1.03272;
0.000200016;1.03272;
0.000200026;1.03272;
0.000200047;1.03272;
0.000200088;1.03272;
0.00020017;1.03272;
0.000200334;1.03269;
0.000200661;1.03258;
0.00020114;1.03234;
0.000201613;1.03206;
0.000202245;1.03169;
0.000203047;1.03123;
0.000204047;1.03071;
0.000204979;1.03025;
0.000205845;1.02986;
0.000206845;1.02945;
0.000207845;1.02907;
0.000208845;1.02872;
0.000209845;1.0284;
0.000210845;1.02811;
0.000211125;1.02803;
0.000211256;1.02799;
0.000211388;1.02796;
0.000211512;1.02792;
0.000211648;1.02789;
0.000211819;1.02784;
0.000212027;1.02779;
0.00021214;1.02776;
0.000212261;1.02773;
0.00021237;1.0277;
0.000212504;1.02767;
0.000212654;1.02764;
0.000212842;1.02759;
0.000213095;1.02753;
0.000213433;1.02745;
0.00021392;1.02735;
0.00021462;1.0272;
0.00021541;1.02705;
0.000215973;1.02694;
0.000216576;1.02683;
0.000217237;1.02672;
0.000217878;1.02662;
0.000218775;1.02649;
0.000219775;1.02635;
0.000220775;1.02623;
0.000221775;1.02611;
0.000222775;1.02601;
0.000223775;1.02591;
0.000224775;1.02582;
0.000225775;1.02574;
0.000226775;1.02566;
0.000227775;1.02559;
0.000228775;1.02553;
0.000229775;1.02547;
0.000230775;1.02542;
0.000231775;1.02537;
0.000232775;1.02532;
0.000233775;1.02528;
0.000234775;1.02524;
0.000235775;1.02521;
0.000236775;1.02517;
0.000237775;1.02514;
0.000238775;1.02512;
0.000239775;1.02509;
0.000240002;1.02509;
0.000240002;1.02509;
0.000240003;1.02509;
0.000240003;1.02509;
0.000240004;1.02509;
0.000240004;1.02509;
0.000240004;1.02509;
0.000240005;1.02509;
0.000240006;1.02509;
0.000240009;1.02509;
0.000240014;1.02508;
0.000240024;1.02508;
0.000240045;1.02508;
0.000240086;1.02508;
0.000240168;1.02508;
0.000240332;1.02511;
0.000240659;1.02523;
0.000241201;1.0255;
0.000241729;1.02581;
0.000242486;1.02626;
0.000243431;1.02678;
0.000244431;1.02729;
0.000245363;1.02773;
0.000246275;1.02812;
0.000247275;1.02852;
0.000248275;1.02889;
0.000249275;1.02923;
0.000250275;1.02954;
0.000251275;1.02982;
0.000251714;1.02993;
0.000251984;1.03;
0.000252156;1.03005;
0.000252401;1.03011;
0.000252572;1.03015;
0.000252761;1.0302;
0.000252836;1.03021;
0.000252872;1.03022;
0.000252878;1.03022;
0.000252881;1.03022;
0.000252883;1.03022;
0.000252884;1.03023;
0.000252885;1.03023;
0.000252886;1.03023;
0.000252887;1.03023;
0.000252887;1.03023;
0.000252888;1.03023;
0.00025289;1.03023;
0.000252891;1.03023;
0.000252894;1.03023;
0.000252898;1.03023;
0.000252902;1.03023;
0.000252906;1.03023;
0.00025291;1.03023;
0.000252914;1.03023;
0.000252919;1.03023;
0.000252924;1.03023;
0.000252929;1.03024;
0.000252934;1.03024;
0.00025294;1.03024;
0.000252947;1.03024;
0.000252956;1.03024;
0.000252967;1.03024;
0.000252981;1.03025;
0.000253;1.03025;
0.000253033;1.03026;
0.000253087;1.03027;
0.000253196;1.0303;
0.000253415;1.03035;
0.000253841;1.03044;
0.00025427;1.03053;
0.000254743;1.03063;
0.000255055;1.03069;
0.000255447;1.03077;
0.000255724;1.03082;
0.000256091;1.03089;
0.000256826;1.03101;
0.000257826;1.03118;
0.000258826;1.03132;
0.000259826;1.03146;
0.000260826;1.03159;
0.000261826;1.0317;
0.000262826;1.03181;
0.000263826;1.0319;
0.000264826;1.03199;
0.000265826;1.03207;
0.000266826;1.03215;
0.000267826;1.03222;
0.000268826;1.03228;
0.000269826;1.03234;
0.000270826;1.03239;
0.000271826;1.03244;
0.000272826;1.03249;
0.000273826;1.03253;
0.000274826;1.03257;
0.000275826;1.0326;
0.000276826;1.03263;
0.000277826;1.03266;
0.000278826;1.03269;
0.000279826;1.03272;
0.000280004;1.03272;
0.000280004;1.03272;
0.000280005;1.03272;
0.000280005;1.03272;
0.000280006;1.03272;
0.000280006;1.03272;
0.000280006;1.03272;
0.000280007;1.03272;
0.000280008;1.03272;
0.000280011;1.03272;
0.000280016;1.03272;
0.000280026;1.03272;
0.000280047;1.03272;
0.000280088;1.03272;
0.00028017;1.03272;
0.000280334;1.03269;
0.000280661;1.03258;
0.00028114;1.03234;
0.000281613;1.03206;
0.000282245;1.03169;
0.000283047;1.03123;
0.000284047;1.03071;
0.000284979;1.03025;
0.000285845;1.02986;
0.000286845;1.02945;
0.000287845;1.02907;
0.000288845;1.02872;
0.000289845;1.0284;
0.000290845;1.02811;
0.000291125;1.02803;
0.000291256;1.02799;
0.000291388;1.02796;
0.000291512;1.02792;
0.000291648;1.02789;
0.000291819;1.02784;
0.000292027;1.02779;
0.00029214;1.02776;
0.000292261;1.02773;
0.00029237;1.0277;
0.000292504;1.02767;
0.000292654;1.02764;
0.000292842;1.02759;
0.000293095;1.02753;
0.000293433;1.02745;
0.00029392;1.02735;
0.00029462;1.0272;
0.00029541;1.02705;
0.000295973;1.02694;
0.000296576;1.02683;
0.000297237;1.02672;
0.000297878;1.02662;
0.000298775;1.02649;
0.000299775;1.02635;
0.000300775;1.02623;
0.000301775;1.02611;
0.000302775;1.02601;
0.000303775;1.02591;
0.000304775;1.02582;
0.000305775;1.02574;
0.000306775;1.02566;
0.000307775;1.02559;
0.000308775;1.02553;
0.000309775;1.02547;
0.000310775;1.02542;
0.000311775;1.02537;
0.000312775;1.02532;
0.000313775;1.02528;
0.000314775;1.02524;
0.000315775;1.02521;
0.000316775;1.02517;
0.000317775;1.02514;
0.000318775;1.02512;
0.000319775;1.02509;
0.000320002;1.02509;
0.000320002;1.02509;
0.000320003;1.02509;
0.000320003;1.02509;
0.000320004;1.02509;
0.000320004;1.02509;
0.000320004;1.02509;
0.000320005;1.02509;
0.000320006;1.02509;
0.000320009;1.02509;
0.000320014;1.02508;
0.000320024;1.02508;
0.000320045;1.02508;
0.000320086;1.02508;
0.000320168;1.02508;
0.000320332;1.02511;
0.000320659;1.02523;
0.000321201;1.0255;
0.000321729;1.02581;
0.000322486;1.02626;
0.000323431;1.02678;
0.000324431;1.02729;
0.000325363;1.02773;
0.000326275;1.02812;
0.000327275;1.02852;
0.000328275;1.02889;
0.000329275;1.02923;
0.000330275;1.02954;
0.000331275;1.02982;
0.000331714;1.02993;
0.000331984;1.03;
0.000332156;1.03005;
0.000332401;1.03011;
0.000332572;1.03015;
0.000332761;1.0302;
0.000332836;1.03021;
0.000332872;1.03022;
0.000332878;1.03022;
0.000332881;1.03022;
0.000332883;1.03022;
0.000332884;1.03023;
0.000332885;1.03023;
0.000332886;1.03023;
0.000332887;1.03023;
0.000332887;1.03023;
0.000332888;1.03023;
0.00033289;1.03023;
0.000332891;1.03023;
0.000332894;1.03023;
0.000332898;1.03023;
0.000332902;1.03023;
0.000332906;1.03023;
0.00033291;1.03023;
0.000332914;1.03023;
0.000332919;1.03023;
0.000332924;1.03023;
0.000332929;1.03024;
0.000332934;1.03024;
0.00033294;1.03024;
0.000332947;1.03024;
0.000332956;1.03024;
0.000332967;1.03024;
0.000332981;1.03025;
0.000333;1.03025;
0.000333033;1.03026;
0.000333087;1.03027;
0.000333196;1.0303;
0.000333415;1.03035;
0.000333841;1.03044;
0.00033427;1.03053;
0.000334743;1.03063;
0.000335055;1.03069;
0.000335447;1.03077;
0.000335724;1.03082;
0.000336091;1.03089;
0.000336826;1.03101;
0.000337826;1.03118;
0.000338826;1.03132;
0.000339826;1.03146;
0.000340826;1.03159;
0.000341826;1.0317;
0.000342826;1.03181;
0.000343826;1.0319;
0.000344826;1.03199;
0.000345826;1.03207;
0.000346826;1.03215;
0.000347826;1.03222;
0.000348826;1.03228;
0.000349826;1.03234;
0.000350826;1.03239;
0.000351826;1.03244;
0.000352826;1.03249;
0.000353826;1.03253;
0.000354826;1.03257;
0.000355826;1.0326;
0.000356826;1.03263;
0.000357826;1.03266;
0.000358826;1.03269;
0.000359826;1.03272;
0.000360004;1.03272;
0.000360004;1.03272;
0.000360005;1.03272;
0.000360005;1.03272;
0.000360006;1.03272;
0.000360006;1.03272;
0.000360006;1.03272;
0.000360007;1.03272;
0.000360008;1.03272;
0.000360011;1.03272;
0.000360016;1.03272;
0.000360026;1.03272;
0.000360047;1.03272;
0.000360088;1.03272;
0.00036017;1.03272;
0.000360334;1.03269;
0.000360661;1.03258;
0.00036114;1.03234;
0.000361613;1.03206;
0.000362245;1.03169;
0.000363047;1.03123;
0.000364047;1.03071;
0.000364979;1.03025;
0.000365845;1.02986;
0.000366845;1.02945;
0.000367845;1.02907;
0.000368845;1.02872;
0.000369845;1.0284;
0.000370845;1.02811;
0.000371125;1.02803;
0.000371256;1.02799;
0.000371388;1.02796;
0.000371512;1.02792;
0.000371648;1.02789;
0.000371819;1.02784;
0.000372027;1.02779;
0.00037214;1.02776;
0.000372261;1.02773;
0.00037237;1.0277;
0.000372504;1.02767;
0.000372654;1.02764;
0.000372842;1.02759;
0.000373095;1.02753;
0.000373433;1.02745;
0.00037392;1.02735;
0.00037462;1.0272;
0.00037541;1.02705;
0.000375973;1.02694;
0.000376576;1.02683;
0.000377237;1.02672;
0.000377878;1.02662;
0.000378775;1.02649;
0.000379775;1.02635;
0.000380775;1.02623;
0.000381775;1.02611;
0.000382775;1.02601;
0.000383775;1.02591;
0.000384775;1.02582;
0.000385775;1.02574;
0.000386775;1.02566;
0.000387775;1.02559;
0.000388775;1.02553;
0.000389775;1.02547;
0.000390775;1.02542;
0.000391775;1.02537;
0.000392775;1.02532;
0.000393775;1.02528;
0.000394775;1.02524;
0.000395775;1.02521;
0.000396775;1.02517;
0.000397775;1.02514;
0.000398775;1.02512;
0.000399775;1.02509;
0.000400002;1.02509;
0.000400002;1.02509;
0.000400003;1.02509;
0.000400003;1.02509;
0.000400004;1.02509;
0.000400004;1.02509;
0.000400004;1.02509;
0.000400005;1.02509;
0.000400006;1.02509;
0.000400009;1.02509;
0.000400014;1.02508;
0.000400024;1.02508;
0.000400045;1.02508;
0.000400086;1.02508;
0.000400168;1.02508;
0.000400332;1.02511;
0.000400659;1.02523;
0.000401201;1.0255;
0.000401729;1.02581;
0.000402486;1.02626;
0.000403431;1.02678;
0.000404431;1.02729;
0.000405363;1.02773;
0.000406275;1.02812;
0.000407275;1.02852;
0.000408275;1.02889;
0.000409275;1.02923;
0.000410275;1.02954;
0.000411275;1.02982;
0.000411714;1.02993;
0.000411984;1.03;
0.000412156;1.03005;
0.000412401;1.03011;
0.000412572;1.03015;
0.000412761;1.0302;
0.000412836;1.03021;
0.000412872;1.03022;
0.000412878;1.03022;
0.000412881;1.03022;
0.000412883;1.03022;
0.000412884;1.03023;
0.000412885;1.03023;
0.000412886;1.03023;
0.000412887;1.03023;
0.000412887;1.03023;
0.000412888;1.03023;
0.00041289;1.03023;
0.000412891;1.03023;
0.000412894;1.03023;
0.000412898;1.03023;
0.000412902;1.03023;
0.000412906;1.03023;
0.00041291;1.03023;
0.000412914;1.03023;
0.000412919;1.03023;
0.000412924;1.03023;
0.000412929;1.03024;
0.000412934;1.03024;
0.00041294;1.03024;
0.000412947;1.03024;
0.000412956;1.03024;
0.000412967;1.03024;
0.000412981;1.03025;
0.000413;1.03025;
0.000413033;1.03026;
0.000413087;1.03027;
0.000413196;1.0303;
0.000413415;1.03035;
0.000413841;1.03044;
0.00041427;1.03053;
0.000414743;1.03063;
0.000415055;1.03069;
0.000415447;1.03077;
0.000415724;1.03082;
0.000416091;1.03089;
0.000416826;1.03101;
0.000417826;1.03118;
0.000418826;1.03132;
0.000419826;1.03146;
0.000420826;1.03159;
0.000421826;1.0317;
0.000422826;1.03181;
0.000423826;1.0319;
0.000424826;1.03199;
0.000425826;1.03207;
0.000426826;1.03215;
0.000427826;1.03222;
0.000428826;1.03228;
0.000429826;1.03234;
0.000430826;1.03239;
0.000431826;1.03244;
0.000432826;1.03249;
0.000433826;1.03253;
0.000434826;1.03257;
0.000435826;1.0326;
0.000436826;1.03263;
0.000437826;1.03266;
0.000438826;1.03269;
0.000439826;1.03272;
0.000440004;1.03272;
0.000440004;1.03272;
0.000440005;1.03272;
0.000440005;1.03272;
0.000440006;1.03272;
0.000440006;1.03272;
0.000440006;1.03272;
0.000440007;1.03272;
0.000440008;1.03272;
0.000440011;1.03272;
0.000440016;1.03272;
0.000440026;1.03272;
0.000440047;1.03272;
0.000440088;1.03272;
0.00044017;1.03272;
0.000440334;1.03269;
0.000440661;1.03258;
0.00044114;1.03234;
0.000441613;1.03206;
0.000442245;1.03169;
0.000443047;1.03123;
0.000444047;1.03071;
0.000444979;1.03025;
0.000445845;1.02986;
0.000446845;1.02945;
0.000447845;1.02907;
0.000448845;1.02872;
0.000449845;1.0284;
0.000450845;1.02811;
0.000451125;1.02803;
0.000451256;1.02799;
0.000451388;1.02796;
0.000451512;1.02792;
0.000451648;1.02789;
0.000451819;1.02784;
0.000452027;1.02779;
0.00045214;1.02776;
0.000452261;1.02773;
0.00045237;1.0277;
0.000452504;1.02767;
0.000452654;1.02764;
0.000452842;1.02759;
0.000453095;1.02753;
0.000453433;1.02745;
0.00045392;1.02735;
0.00045462;1.0272;
0.00045541;1.02705;
0.000455973;1.02694;
0.000456576;1.02683;
0.000457237;1.02672;
0.000457878;1.02662;
0.000458775;1.02649;
0.000459775;1.02635;
0.000460775;1.02623;
0.000461775;1.02611;
0.000462775;1.02601;
0.000463775;1.02591;
0.000464775;1.02582;
0.000465775;1.02574;
0.000466775;1.02566;
0.000467775;1.02559;
0.000468775;1.02553;
0.000469775;1.02547;
0.000470775;1.02542;
0.000471775;1.02537;
0.000472775;1.02532;
0.000473775;1.02528;
0.000474775;1.02524;
0.000475775;1.02521;
0.000476775;1.02517;
0.000477775;1.02514;
0.000478775;1.02512;
0.000479775;1.02509;
0.000480002;1.02509;
0.000480002;1.02509;
0.000480003;1.02509;
0.000480003;1.02509;
0.000480004;1.02509;
0.000480004;1.02509;
0.000480004;1.02509;
0.000480005;1.02509;
0.000480006;1.02509;
0.000480009;1.02509;
0.000480014;1.02508;
0.000480024;1.02508;
0.000480045;1.02508;
0.000480086;1.02508;
0.000480168;1.02508;
0.000480332;1.02511;
0.000480659;1.02523;
0.000481201;1.0255;
0.000481729;1.02581;
0.000482486;1.02626;
0.000483431;1.02678;
0.000484431;1.02729;
0.000485363;1.02773;
0.000486275;1.02812;
0.000487275;1.02852;
0.000488275;1.02889;
0.000489275;1.02923;
0.000490275;1.02954;
0.000491275;1.02982;
0.000491714;1.02993;
0.000491984;1.03;
0.000492156;1.03005;
0.000492401;1.03011;
0.000492572;1.03015;
0.000492761;1.0302;
0.000492836;1.03021;
0.000492872;1.03022;
0.000492878;1.03022;
0.000492881;1.03022;
0.000492883;1.03022;
0.000492884;1.03023;
0.000492885;1.03023;
0.000492886;1.03023;
0.000492887;1.03023;
0.000492887;1.03023;
0.000492888;1.03023;
0.00049289;1.03023;
0.000492891;1.03023;
0.000492894;1.03023;
0.000492898;1.03023;
0.000492902;1.03023;
0.000492906;1.03023;
0.00049291;1.03023;
0.000492914;1.03023;
0.000492919;1.03023;
0.000492924;1.03023;
0.000492929;1.03024;
0.000492934;1.03024;
0.00049294;1.03024;
0.000492947;1.03024;
0.000492956;1.03024;
0.000492967;1.03024;
0.000492981;1.03025;
0.000493;1.03025;
0.000493033;1.03026;
0.000493087;1.03027;
0.000493196;1.0303;
0.000493415;1.03035;
0.000493841;1.03044;
0.00049427;1.03053;
0.000494743;1.03063;
0.000495055;1.03069;
0.000495447;1.03077;
0.000495724;1.03082;
0.000496091;1.03089;
0.000496826;1.03101;
0.000497826;1.03118;
0.000498826;1.03132;
0.000499826;1.03146;
0.000500826;1.03159;
0.000501826;1.0317;
0.000502826;1.03181;
0.000503826;1.0319;
0.000504826;1.03199;
0.000505826;1.03207;
0.000506826;1.03215;
0.000507826;1.03222;
0.000508826;1.03228;
0.000509826;1.03234;
0.000510826;1.03239;
0.000511826;1.03244;
0.000512826;1.03249;
0.000513826;1.03253;
0.000514826;1.03257;
0.000515826;1.0326;
0.000516826;1.03263;
0.000517826;1.03266;
0.000518826;1.03269;
0.000519826;1.03272;
0.000520004;1.03272;
0.000520004;1.03272;
0.000520005;1.03272;
0.000520005;1.03272;
0.000520006;1.03272;
0.000520006;1.03272;
0.000520006;1.03272;
0.000520007;1.03272;
0.000520008;1.03272;
0.000520011;1.03272;
0.000520016;1.03272;
0.000520026;1.03272;
0.000520047;1.03272;
0.000520088;1.03272;
0.00052017;1.03272;
0.000520334;1.03269;
0.000520661;1.03258;
0.00052114;1.03234;
0.000521613;1.03206;
0.000522245;1.03169;
0.000523047;1.03123;
0.000524047;1.03071;
0.000524979;1.03025;
0.000525845;1.02986;
0.000526845;1.02945;
0.000527845;1.02907;
0.000528845;1.02872;
0.000529845;1.0284;
0.000530845;1.02811;
0.000531125;1.02803;
0.000531256;1.02799;
0.000531388;1.02796;
0.000531512;1.02792;
0.000531648;1.02789;
0.000531819;1.02784;
0.000532027;1.02779;
0.00053214;1.02776;
0.000532261;1.02773;
0.00053237;1.0277;
0.000532504;1.02767;
0.000532654;1.02764;
0.000532842;1.02759;
0.000533095;1.02753;
0.000533433;1.02745;
0.00053392;1.02735;
0.00053462;1.0272;
0.00053541;1.02705;
0.000535973;1.02694;
0.000536576;1.02683;
0.000537237;1.02672;
0.000537878;1.02662;
0.000538775;1.02649;
0.000539775;1.02635;
0.000540775;1.02623;
0.000541775;1.02611;
0.000542775;1.02601;
0.000543775;1.02591;
0.000544775;1.02582;
0.000545775;1.02574;
0.000546775;1.02566;
0.000547775;1.02559;
0.000548775;1.02553;
0.000549775;1.02547;
0.000550775;1.02542;
0.000551775;1.02537;
0.000552775;1.02532;
0.000553775;1.02528;
0.000554775;1.02524;
0.000555775;1.02521;
0.000556775;1.02517;
0.000557775;1.02514;
0.000558775;1.02512;
0.000559775;1.02509;
0.000560002;1.02509;
0.000560002;1.02509;
0.000560003;1.02509;
0.000560003;1.02509;
0.000560004;1.02509;
0.000560004;1.02509;
0.000560004;1.02509;
0.000560005;1.02509;
0.000560006;1.02509;
0.000560009;1.02509;
0.000560014;1.02508;
0.000560024;1.02508;
0.000560045;1.02508;
0.000560086;1.02508;
0.000560168;1.02508;
0.000560332;1.02511;
0.000560659;1.02523;
0.000561201;1.0255;
0.000561729;1.02581;
0.000562486;1.02626;
0.000563431;1.02678;
0.000564431;1.02729;
0.000565363;1.02773;
0.000566275;1.02812;
0.000567275;1.02852;
0.000568275;1.02889;
0.000569275;1.02923;
0.000570275;1.02954;
0.000571275;1.02982;
0.000571714;1.02993;
0.000571984;1.03;
0.000572156;1.03005;
0.000572401;1.03011;
0.000572572;1.03015;
0.000572761;1.0302;
0.000572836;1.03021;
0.000572872;1.03022;
0.000572878;1.03022;
0.000572881;1.03022;
0.000572883;1.03022;
0.000572884;1.03023;
0.000572885;1.03023;
0.000572886;1.03023;
0.000572887;1.03023;
0.000572887;1.03023;
0.000572888;1.03023;
0.00057289;1.03023;
0.000572891;1.03023;
0.000572894;1.03023;
0.000572898;1.03023;
0.000572902;1.03023;
0.000572906;1.03023;
0.00057291;1.03023;
0.000572914;1.03023;
0.000572919;1.03023;
0.000572924;1.03023;
0.000572929;1.03024;
0.000572934;1.03024;
0.00057294;1.03024;
0.000572947;1.03024;
0.000572956;1.03024;
0.000572967;1.03024;
0.000572981;1.03025;
0.000573;1.03025;
0.000573033;1.03026;
0.000573087;1.03027;
0.000573196;1.0303;
0.000573415;1.03035;
0.000573841;1.03044;
0.00057427;1.03053;
0.000574743;1.03063;
0.000575055;1.03069;
0.000575447;1.03077;
0.000575724;1.03082;
0.000576091;1.03089;
0.000576826;1.03101;
0.000577826;1.03118;
0.000578826;1.03132;
0.000579826;1.03146;
0.000580826;1.03159;
0.000581826;1.0317;
0.000582826;1.03181;
0.000583826;1.0319;
0.000584826;1.03199;
0.000585826;1.03207;
0.000586826;1.03215;
0.000587826;1.03222;
0.000588826;1.03228;
0.000589826;1.03234;
0.000590826;1.03239;
0.000591826;1.03244;
0.000592826;1.03249;
0.000593826;1.03253;
0.000594826;1.03257;
0.000595826;1.0326;
0.000596826;1.03263;
0.000597826;1.03266;
0.000598826;1.03269;
0.000599826;1.03272;
0.000600004;1.03272;
0.000600004;1.03272;
0.000600005;1.03272;
0.000600005;1.03272;
0.000600006;1.03272;
0.000600006;1.03272;
0.000600006;1.03272;
0.000600007;1.03272;
0.000600008;1.03272;
0.000600011;1.03272;
0.000600016;1.03272;
0.000600026;1.03272;
0.000600047;1.03272;
0.000600088;1.03272;
0.00060017;1.03272;
0.000600334;1.03269;
0.000600661;1.03258;
0.00060114;1.03234;
0.000601613;1.03206;
0.000602245;1.03169;
0.000603047;1.03123;
0.000604047;1.03071;
0.000604979;1.03025;
0.000605845;1.02986;
0.000606845;1.02945;
0.000607845;1.02907;
0.000608845;1.02872;
0.000609845;1.0284;
0.000610845;1.02811;
0.000611125;1.02803;
0.000611256;1.02799;
0.000611388;1.02796;
0.000611512;1.02792;
0.000611648;1.02789;
0.000611819;1.02784;
0.000612027;1.02779;
0.00061214;1.02776;
0.000612261;1.02773;
0.00061237;1.0277;
0.000612504;1.02767;
0.000612654;1.02764;
0.000612842;1.02759;
0.000613095;1.02753;
0.000613433;1.02745;
0.00061392;1.02735;
0.00061462;1.0272;
0.00061541;1.02705;
0.000615973;1.02694;
0.000616576;1.02683;
0.000617237;1.02672;
0.000617878;1.02662;
0.000618775;1.02649;
0.000619775;1.02635;
0.000620775;1.02623;
0.000621775;1.02611;
0.000622775;1.02601;
0.000623775;1.02591;
0.000624775;1.02582;
0.000625775;1.02574;
0.000626775;1.02566;
0.000627775;1.02559;
0.000628775;1.02553;
0.000629775;1.02547;
0.000630775;1.02542;
0.000631775;1.02537;
0.000632775;1.02532;
0.000633775;1.02528;
0.000634775;1.02524;
0.000635775;1.02521;
0.000636775;1.02517;
0.000637775;1.02514;
0.000638775;1.02512;
0.000639775;1.02509;
0.000640002;1.02509;
0.000640002;1.02509;
0.000640003;1.02509;
0.000640003;1.02509;
0.000640004;1.02509;
0.000640004;1.02509;
0.000640004;1.02509;
0.000640005;1.02509;
0.000640006;1.02509;
0.000640009;1.02509;
0.000640014;1.02508;
0.000640024;1.02508;
0.000640045;1.02508;
0.000640086;1.02508;
0.000640168;1.02508;
0.000640332;1.02511;
0.000640659;1.02523;
0.000641201;1.0255;
0.000641729;1.02581;
0.000642486;1.02626;
0.000643431;1.02678;
0.000644431;1.02729;
0.000645363;1.02773;
0.000646275;1.02812;
0.000647275;1.02852;
0.000648275;1.02889;
0.000649275;1.02923;
0.000650275;1.02954;
0.000651275;1.02982;
0.000651714;1.02993;
0.000651984;1.03;
0.000652156;1.03005;
0.000652401;1.03011;
0.000652572;1.03015;
0.000652761;1.0302;
0.000652836;1.03021;
0.000652872;1.03022;
0.000652878;1.03022;
0.000652881;1.03022;
0.000652883;1.03022;
0.000652884;1.03023;
0.000652885;1.03023;
0.000652886;1.03023;
0.000652887;1.03023;
0.000652887;1.03023;
0.000652888;1.03023;
0.00065289;1.03023;
0.000652891;1.03023;
0.000652894;1.03023;
0.000652898;1.03023;
0.000652902;1.03023;
0.000652906;1.03023;
0.00065291;1.03023;
0.000652914;1.03023;
0.000652919;1.03023;
0.000652924;1.03023;
0.000652929;1.03024;
0.000652934;1.03024;
0.00065294;1.03024;
0.000652947;1.03024;
0.000652956;1.03024;
0.000652967;1.03024;
0.000652981;1.03025;
0.000653;1.03025;
0.000653033;1.03026;
0.000653087;1.03027;
0.000653196;1.0303;
0.000653415;1.03035;
0.000653841;1.03044;
0.00065427;1.03053;
0.000654743;1.03063;
0.000655055;1.03069;
0.000655447;1.03077;
0.000655724;1.03082;
0.000656091;1.03089;
0.000656826;1.03101;
0.000657826;1.03118;
0.000658826;1.03132;
0.000659826;1.03146;
0.000660826;1.03159;
0.000661826;1.0317;
0.000662826;1.03181;
0.000663826;1.0319;
0.000664826;1.03199;
0.000665826;1.03207;
0.000666826;1.03215;
0.000667826;1.03222;
0.000668826;1.03228;
0.000669826;1.03234;
0.000670826;1.03239;
0.000671826;1.03244;
0.000672826;1.03249;
0.000673826;1.03253;
0.000674826;1.03257;
0.000675826;1.0326;
0.000676826;1.03263;
0.000677826;1.03266;
0.000678826;1.03269;
0.000679826;1.03272;
0.000680004;1.03272;
0.000680004;1.03272;
0.000680005;1.03272;
0.000680005;1.03272;
0.000680006;1.03272;
0.000680006;1.03272;
0.000680006;1.03272;
0.000680007;1.03272;
0.000680008;1.03272;
0.000680011;1.03272;
0.000680016;1.03272;
0.000680026;1.03272;
0.000680047;1.03272;
0.000680088;1.03272;
0.00068017;1.03272;
0.000680334;1.03269;
0.000680661;1.03258;
0.00068114;1.03234;
0.000681613;1.03206;
0.000682245;1.03169;
0.000683047;1.03123;
0.000684047;1.03071;
0.000684979;1.03025;
0.000685845;1.02986;
0.000686845;1.02945;
0.000687845;1.02907;
0.000688845;1.02872;
0.000689845;1.0284;
0.000690845;1.02811;
0.000691125;1.02803;
0.000691256;1.02799;
0.000691388;1.02796;
0.000691512;1.02792;
0.000691648;1.02789;
0.000691819;1.02784;
0.000692027;1.02779;
0.00069214;1.02776;
0.000692261;1.02773;
0.00069237;1.0277;
0.000692504;1.02767;
0.000692654;1.02764;
0.000692842;1.02759;
0.000693095;1.02753;
0.000693433;1.02745;
0.00069392;1.02735;
0.00069462;1.0272;
0.00069541;1.02705;
0.000695973;1.02694;
0.000696576;1.02683;
0.000697237;1.02672;
0.000697878;1.02662;
0.000698775;1.02649;
0.000699775;1.02635;
0.000700775;1.02623;
0.000701775;1.02611;
0.000702775;1.02601;
0.000703775;1.02591;
0.000704775;1.02582;
0.000705775;1.02574;
0.000706775;1.02566;
0.000707775;1.02559;
0.000708775;1.02553;
0.000709775;1.02547;
0.000710775;1.02542;
0.000711775;1.02537;
0.000712775;1.02532;
0.000713775;1.02528;
0.000714775;1.02524;
0.000715775;1.02521;
0.000716775;1.02517;
0.000717775;1.02514;
0.000718775;1.02512;
0.000719775;1.02509;
0.000720002;1.02509;
0.000720002;1.02509;
0.000720003;1.02509;
0.000720003;1.02509;
0.000720004;1.02509;
0.000720004;1.02509;
0.000720004;1.02509;
0.000720005;1.02509;
0.000720006;1.02509;
0.000720009;1.02509;
0.000720014;1.02508;
0.000720024;1.02508;
0.000720045;1.02508;
0.000720086;1.02508;
0.000720168;1.02508;
0.000720332;1.02511;
0.000720659;1.02523;
0.000721201;1.0255;
0.000721729;1.02581;
0.000722486;1.02626;
0.000723431;1.02678;
0.000724431;1.02729;
0.000725363;1.02773;
0.000726275;1.02812;
0.000727275;1.02852;
0.000728275;1.02889;
0.000729275;1.02923;
0.000730275;1.02954;
0.000731275;1.02982;
0.000731714;1.02993;
0.000731984;1.03;
0.000732156;1.03005;
0.000732401;1.03011;
0.000732572;1.03015;
0.000732761;1.0302;
0.000732836;1.03021;
0.000732872;1.03022;
0.000732878;1.03022;
0.000732881;1.03022;
0.000732883;1.03022;
0.000732884;1.03023;
0.000732885;1.03023;
0.000732886;1.03023;
0.000732887;1.03023;
0.000732887;1.03023;
0.000732888;1.03023;
0.00073289;1.03023;
0.000732891;1.03023;
0.000732894;1.03023;
0.000732898;1.03023;
0.000732902;1.03023;
0.000732906;1.03023;
0.00073291;1.03023;
0.000732914;1.03023;
0.000732919;1.03023;
0.000732924;1.03023;
0.000732929;1.03024;
0.000732934;1.03024;
0.00073294;1.03024;
0.000732947;1.03024;
0.000732956;1.03024;
0.000732967;1.03024;
0.000732981;1.03025;
0.000733;1.03025;
0.000733033;1.03026;
0.000733087;1.03027;
0.000733196;1.0303;
0.000733415;1.03035;
0.000733841;1.03044;
0.00073427;1.03053;
0.000734743;1.03063;
0.000735055;1.03069;
0.000735447;1.03077;
0.000735724;1.03082;
0.000736091;1.03089;
0.000736826;1.03101;
0.000737826;1.03118;
0.000738826;1.03132;
0.000739826;1.03146;
0.000740826;1.03159;
0.000741826;1.0317;
0.000742826;1.03181;
0.000743826;1.0319;
0.000744826;1.03199;
0.000745826;1.03207;
0.000746826;1.03215;
0.000747826;1.03222;
0.000748826;1.03228;
0.000749826;1.03234;
0.000750826;1.03239;
0.000751826;1.03244;
0.000752826;1.03249;
0.000753826;1.03253;
0.000754826;1.03257;
0.000755826;1.0326;
0.000756826;1.03263;
0.000757826;1.03266;
0.000758826;1.03269;
0.000759826;1.03272;
0.000760004;1.03272;
0.000760004;1.03272;
0.000760005;1.03272;
0.000760005;1.03272;
0.000760006;1.03272;
0.000760006;1.03272;
0.000760006;1.03272;
0.000760007;1.03272;
0.000760008;1.03272;
0.000760011;1.03272;
0.000760016;1.03272;
0.000760026;1.03272;
0.000760047;1.03272;
0.000760088;1.03272;
0.00076017;1.03272;
0.000760334;1.03269;
0.000760661;1.03258;
0.00076114;1.03234;
0.000761613;1.03206;
0.000762245;1.03169;
0.000763047;1.03123;
0.000764047;1.03071;
0.000764979;1.03025;
0.000765845;1.02986;
0.000766845;1.02945;
0.000767845;1.02907;
0.000768845;1.02872;
0.000769845;1.0284;
0.000770845;1.02811;
0.000771125;1.02803;
0.000771256;1.02799;
0.000771388;1.02796;
0.000771512;1.02792;
0.000771648;1.02789;
0.000771819;1.02784;
0.000772027;1.02779;
0.00077214;1.02776;
0.000772261;1.02773;
0.00077237;1.0277;
0.000772504;1.02767;
0.000772654;1.02764;
0.000772842;1.02759;
0.000773095;1.02753;
0.000773433;1.02745;
0.00077392;1.02735;
0.00077462;1.0272;
0.00077541;1.02705;
0.000775973;1.02694;
0.000776576;1.02683;
0.000777237;1.02672;
0.000777878;1.02662;
0.000778775;1.02649;
0.000779775;1.02635;
0.000780775;1.02623;
0.000781775;1.02611;
0.000782775;1.02601;
0.000783775;1.02591;
0.000784775;1.02582;
0.000785775;1.02574;
0.000786775;1.02566;
0.000787775;1.02559;
0.000788775;1.02553;
0.000789775;1.02547;
0.000790775;1.02542;
0.000791775;1.02537;
0.000792775;1.02532;
0.000793775;1.02528;
0.000794775;1.02524;
0.000795775;1.02521;
0.000796775;1.02517;
0.000797775;1.02514;
0.000798775;1.02512;
0.000799775;1.02509;
0.000800002;1.02509;
0.000800002;1.02509;
0.000800003;1.02509;
0.000800003;1.02509;
0.000800004;1.02509;
0.000800004;1.02509;
0.000800004;1.02509;
0.000800005;1.02509;
0.000800006;1.02509;
0.000800009;1.02509;
0.000800014;1.02508;
0.000800024;1.02508;
0.000800045;1.02508;
0.000800086;1.02508;
0.000800168;1.02508;
0.000800332;1.02511;
0.000800659;1.02523;
0.000801201;1.0255;
0.000801729;1.02581;
0.000802486;1.02626;
0.000803431;1.02678;
0.000804431;1.02729;
0.000805363;1.02773;
0.000806275;1.02812;
0.000807275;1.02852;
0.000808275;1.02889;
0.000809275;1.02923;
0.000810275;1.02954;
0.000811275;1.02982;
0.000811714;1.02993;
0.000811984;1.03;
0.000812156;1.03005;
0.000812401;1.03011;
0.000812572;1.03015;
0.000812761;1.0302;
0.000812836;1.03021;
0.000812872;1.03022;
0.000812878;1.03022;
0.000812881;1.03022;
0.000812883;1.03022;
0.000812884;1.03023;
0.000812885;1.03023;
0.000812886;1.03023;
0.000812887;1.03023;
0.000812887;1.03023;
0.000812888;1.03023;
0.00081289;1.03023;
0.000812891;1.03023;
0.000812894;1.03023;
0.000812898;1.03023;
0.000812902;1.03023;
0.000812906;1.03023;
0.00081291;1.03023;
0.000812914;1.03023;
0.000812919;1.03023;
0.000812924;1.03023;
0.000812929;1.03024;
0.000812934;1.03024;
0.00081294;1.03024;
0.000812947;1.03024;
0.000812956;1.03024;
0.000812967;1.03024;
0.000812981;1.03025;
0.000813;1.03025;
0.000813033;1.03026;
0.000813087;1.03027;
0.000813196;1.0303;
0.000813415;1.03035;
0.000813841;1.03044;
0.00081427;1.03053;
0.000814743;1.03063;
0.000815055;1.03069;
0.000815447;1.03077;
0.000815724;1.03082;
0.000816091;1.03089;
0.000816826;1.03101;
0.000817826;1.03118;
0.000818826;1.03132;
0.000819826;1.03146;
0.000820826;1.03159;
0.000821826;1.0317;
0.000822826;1.03181;
0.000823826;1.0319;
0.000824826;1.03199;
0.000825826;1.03207;
0.000826826;1.03215;
0.000827826;1.03222;
0.000828826;1.03228;
0.000829826;1.03234;
0.000830826;1.03239;
0.000831826;1.03244;
0.000832826;1.03249;
0.000833826;1.03253;
0.000834826;1.03257;
0.000835826;1.0326;
0.000836826;1.03263;
0.000837826;1.03266;
0.000838826;1.03269;
0.000839826;1.03272;
0.000840004;1.03272;
0.000840004;1.03272;
0.000840005;1.03272;
0.000840005;1.03272;
0.000840006;1.03272;
0.000840006;1.03272;
0.000840006;1.03272;
0.000840007;1.03272;
0.000840008;1.03272;
0.000840011;1.03272;
0.000840016;1.03272;
0.000840026;1.03272;
0.000840047;1.03272;
0.000840088;1.03272;
0.00084017;1.03272;
0.000840334;1.03269;
0.000840661;1.03258;
0.00084114;1.03234;
0.000841613;1.03206;
0.000842245;1.03169;
0.000843047;1.03123;
0.000844047;1.03071;
0.000844979;1.03025;
0.000845845;1.02986;
0.000846845;1.02945;
0.000847845;1.02907;
0.000848845;1.02872;
0.000849845;1.0284;
0.000850845;1.02811;
0.000851125;1.02803;
0.000851256;1.02799;
0.000851388;1.02796;
0.000851512;1.02792;
0.000851648;1.02789;
0.000851819;1.02784;
0.000852027;1.02779;
0.00085214;1.02776;
0.000852261;1.02773;
0.00085237;1.0277;
0.000852504;1.02767;
0.000852654;1.02764;
0.000852842;1.02759;
0.000853095;1.02753;
0.000853433;1.02745;
0.00085392;1.02735;
0.00085462;1.0272;
0.00085541;1.02705;
0.000855973;1.02694;
0.000856576;1.02683;
0.000857237;1.02672;
0.000857878;1.02662;
0.000858775;1.02649;
0.000859775;1.02635;
0.000860775;1.02623;
0.000861775;1.02611;
0.000862775;1.02601;
0.000863775;1.02591;
0.000864775;1.02582;
0.000865775;1.02574;
0.000866775;1.02566;
0.000867775;1.02559;
0.000868775;1.02553;
0.000869775;1.02547;
0.000870775;1.02542;
0.000871775;1.02537;
0.000872775;1.02532;
0.000873775;1.02528;
0.000874775;1.02524;
0.000875775;1.02521;
0.000876775;1.02517;
0.000877775;1.02514;
0.000878775;1.02512;
0.000879775;1.02509;
0.000880002;1.02509;
0.000880002;1.02509;
0.000880003;1.02509;
0.000880003;1.02509;
0.000880004;1.02509;
0.000880004;1.02509;
0.000880004;1.02509;
0.000880005;1.02509;
0.000880006;1.02509;
0.000880009;1.02509;
0.000880014;1.02508;
0.000880024;1.02508;
0.000880045;1.02508;
0.000880086;1.02508;
0.000880168;1.02508;
0.000880332;1.02511;
0.000880659;1.02523;
0.000881201;1.0255;
0.000881729;1.02581;
0.000882486;1.02626;
0.000883431;1.02678;
0.000884431;1.02729;
0.000885363;1.02773;
0.000886275;1.02812;
0.000887275;1.02852;
0.000888275;1.02889;
0.000889275;1.02923;
0.000890275;1.02954;
0.000891275;1.02982;
0.000891714;1.02993;
0.000891984;1.03;
0.000892156;1.03005;
0.000892401;1.03011;
0.000892572;1.03015;
0.000892761;1.0302;
0.000892836;1.03021;
0.000892872;1.03022;
0.000892878;1.03022;
0.000892881;1.03022;
0.000892883;1.03022;
0.000892884;1.03023;
0.000892885;1.03023;
0.000892886;1.03023;
0.000892887;1.03023;
0.000892887;1.03023;
0.000892888;1.03023;
0.00089289;1.03023;
0.000892891;1.03023;
0.000892894;1.03023;
0.000892898;1.03023;
0.000892902;1.03023;
0.000892906;1.03023;
0.00089291;1.03023;
0.000892914;1.03023;
0.000892919;1.03023;
0.000892924;1.03023;
0.000892929;1.03024;
0.000892934;1.03024;
0.00089294;1.03024;
0.000892947;1.03024;
0.000892956;1.03024;
0.000892967;1.03024;
0.000892981;1.03025;
0.000893;1.03025;
0.000893033;1.03026;
0.000893087;1.03027;
0.000893196;1.0303;
0.000893415;1.03035;
0.000893841;1.03044;
0.00089427;1.03053;
0.000894743;1.03063;
0.000895055;1.03069;
0.000895447;1.03077;
0.000895724;1.03082;
0.000896091;1.03089;
0.000896826;1.03101;
0.000897826;1.03118;
0.000898826;1.03132;
0.000899826;1.03146;
0.000900826;1.03159;
0.000901826;1.0317;
0.000902826;1.03181;
0.000903826;1.0319;
0.000904826;1.03199;
0.000905826;1.03207;
0.000906826;1.03215;
0.000907826;1.03222;
0.000908826;1.03228;
0.000909826;1.03234;
0.000910826;1.03239;
0.000911826;1.03244;
0.000912826;1.03249;
0.000913826;1.03253;
0.000914826;1.03257;
0.000915826;1.0326;
0.000916826;1.03263;
0.000917826;1.03266;
0.000918826;1.03269;
0.000919826;1.03272;
0.000920004;1.03272;
0.000920004;1.03272;
0.000920005;1.03272;
0.000920005;1.03272;
0.000920006;1.03272;
0.000920006;1.03272;
0.000920006;1.03272;
0.000920007;1.03272;
0.000920008;1.03272;
0.000920011;1.03272;
0.000920016;1.03272;
0.000920026;1.03272;
0.000920047;1.03272;
0.000920088;1.03272;
0.00092017;1.03272;
0.000920334;1.03269;
0.000920661;1.03258;
0.00092114;1.03234;
0.000921613;1.03206;
0.000922245;1.03169;
0.000923047;1.03123;
0.000924047;1.03071;
0.000924979;1.03025;
0.000925845;1.02986;
0.000926845;1.02945;
0.000927845;1.02907;
0.000928845;1.02872;
0.000929845;1.0284;
0.000930845;1.02811;
0.000931125;1.02803;
0.000931256;1.02799;
0.000931388;1.02796;
0.000931512;1.02792;
0.000931648;1.02789;
0.000931819;1.02784;
0.000932027;1.02779;
0.00093214;1.02776;
0.000932261;1.02773;
0.00093237;1.0277;
0.000932504;1.02767;
0.000932654;1.02764;
0.000932842;1.02759;
0.000933095;1.02753;
0.000933433;1.02745;
0.00093392;1.02735;
0.00093462;1.0272;
0.00093541;1.02705;
0.000935973;1.02694;
0.000936576;1.02683;
0.000937237;1.02672;
0.000937878;1.02662;
0.000938775;1.02649;
0.000939775;1.02635;
0.000940775;1.02623;
0.000941775;1.02611;
0.000942775;1.02601;
0.000943775;1.02591;
0.000944775;1.02582;
0.000945775;1.02574;
0.000946775;1.02566;
0.000947775;1.02559;
0.000948775;1.02553;
0.000949775;1.02547;
0.000950775;1.02542;
0.000951775;1.02537;
0.000952775;1.02532;
0.000953775;1.02528;
0.000954775;1.02524;
0.000955775;1.02521;
0.000956775;1.02517;
0.000957775;1.02514;
0.000958775;1.02512;
0.000959775;1.02509;
0.000960002;1.02509;
0.000960002;1.02509;
0.000960003;1.02509;
0.000960003;1.02509;
0.000960004;1.02509;
0.000960004;1.02509;
0.000960004;1.02509;
0.000960005;1.02509;
0.000960006;1.02509;
0.000960009;1.02509;
0.000960014;1.02508;
0.000960024;1.02508;
0.000960045;1.02508;
0.000960086;1.02508;
0.000960168;1.02508;
0.000960332;1.02511;
0.000960659;1.02523;
0.000961201;1.0255;
0.000961729;1.02581;
0.000962486;1.02626;
0.000963431;1.02678;
0.000964431;1.02729;
0.000965363;1.02773;
0.000966275;1.02812;
0.000967275;1.02852;
0.000968275;1.02889;
0.000969275;1.02923;
0.000970275;1.02954;
0.000971275;1.02982;
0.000971714;1.02993;
0.000971984;1.03;
0.000972156;1.03005;
0.000972401;1.03011;
0.000972572;1.03015;
0.000972761;1.0302;
0.000972836;1.03021;
0.000972872;1.03022;
0.000972878;1.03022;
0.000972881;1.03022;
0.000972883;1.03022;
0.000972884;1.03023;
0.000972885;1.03023;
0.000972886;1.03023;
0.000972887;1.03023;
0.000972887;1.03023;
0.000972888;1.03023;
0.00097289;1.03023;
0.000972891;1.03023;
0.000972894;1.03023;
0.000972898;1.03023;
0.000972902;1.03023;
0.000972906;1.03023;
0.00097291;1.03023;
0.000972914;1.03023;
0.000972919;1.03023;
0.000972924;1.03023;
0.000972929;1.03024;
0.000972934;1.03024;
0.00097294;1.03024;
0.000972947;1.03024;
0.000972956;1.03024;
0.000972967;1.03024;
0.000972981;1.03025;
0.000973;1.03025;
0.000973033;1.03026;
0.000973087;1.03027;
0.000973196;1.0303;
0.000973415;1.03035;
0.000973841;1.03044;
0.00097427;1.03053;
0.000974743;1.03063;
0.000975055;1.03069;
0.000975447;1.03077;
0.000975724;1.03082;
0.000976091;1.03089;
0.000976826;1.03101;
0.000977826;1.03118;
0.000978826;1.03132;
0.000979826;1.03146;
0.000980826;1.03159;
0.000981826;1.0317;
0.000982826;1.03181;
0.000983826;1.0319;
0.000984826;1.03199;
0.000985826;1.03207;
0.000986826;1.03215;
0.000987826;1.03222;
0.000988826;1.03228;
0.000989826;1.03234;
0.000990826;1.03239;
0.000991826;1.03244;
0.000992826;1.03249;
0.000993826;1.03253;
0.000994826;1.03257;
0.000995826;1.0326;
0.000996826;1.03263;
0.000997826;1.03266;
0.000998826;1.03269;
0.000999826;1.03272;
0.001;1.03272;
